CTI3   

DESCRIPTOR "Argyll Calibration Target chart information 3"
ORIGINATOR "Argyll dispread"
CREATED "Thu Jan  5 17:24:43 2012"
KEYWORD "DEVICE_CLASS"
DEVICE_CLASS "DISPLAY"
KEYWORD "COLOR_REP"
COLOR_REP "RGB_XYZ"
KEYWORD "TARGET_INSTRUMENT"
TARGET_INSTRUMENT "Hughski ColorHug"
KEYWORD "INSTRUMENT_TYPE_SPECTRAL"
INSTRUMENT_TYPE_SPECTRAL "NO"
KEYWORD "LUMINANCE_XYZ_CDM2"
LUMINANCE_XYZ_CDM2 "35.705566 41.656494 46.920776"
KEYWORD "NORMALIZED_TO_Y_100"
NORMALIZED_TO_Y_100 "YES"

NUMBER_OF_FIELDS 7
BEGIN_DATA_FORMAT
SAMPLE_ID RGB_R RGB_G RGB_B XYZ_X XYZ_Y XYZ_Z 
END_DATA_FORMAT

NUMBER_OF_SETS 836
BEGIN_DATA
1 100.00 100.00 100.00 85.714 100.00 112.64 
2 100.00 100.00 100.00 114.29 100.00 112.64 
3 100.00 100.00 100.00 114.84 99.451 112.64 
4 100.00 100.00 100.00 114.84 100.00 112.09 
5 33.330 32.622 30.968 10.989 9.3407 9.8901 
6 100.00 0.0000 100.00 72.527 26.923 79.121 
7 100.00 100.00 0.0000 113.19 82.967 43.407 
8 0.0000 100.00 100.00 42.857 93.956 100.55 
9 0.0000 100.00 0.0000 41.209 75.824 32.967 
10 0.0000 0.0000 100.00 2.7473 19.231 68.681 
11 100.00 0.0000 0.0000 70.330 8.7912 10.989 
12 0.0000 0.0000 0.0000 0.54945 1.0989 0.54945 
13 0.0000 52.455 100.00 12.088 37.363 77.473 
14 100.00 0.0000 50.300 71.429 13.187 25.275 
15 100.00 54.739 100.00 83.516 46.703 87.363 
16 100.00 52.128 0.0000 80.769 26.374 18.681 
17 0.0000 0.0000 46.181 1.0989 3.8462 13.187 
18 0.0000 51.141 0.0000 9.8901 17.582 8.2418 
19 0.0000 100.00 51.348 41.209 79.670 48.901 
20 100.00 100.00 52.037 111.54 87.363 59.890 
21 49.216 0.0000 0.0000 14.835 2.7473 2.7473 
22 56.159 100.00 0.0000 59.341 76.374 36.264 
23 49.226 100.00 100.00 57.143 93.956 104.40 
24 44.487 0.0000 100.00 13.736 19.780 71.429 
25 100.00 44.498 52.029 78.022 25.275 32.418 
26 48.926 48.544 100.00 25.275 35.714 78.022 
27 51.368 100.00 47.250 57.143 79.670 48.352 
28 49.893 0.0000 49.033 15.934 6.0440 17.033 
29 53.109 51.372 0.0000 27.473 19.780 10.440 
30 0.0000 58.587 53.943 13.736 28.022 27.473 
31 100.00 28.065 100.00 75.275 31.868 80.769 
32 0.0000 0.0000 72.874 1.6484 9.8901 32.967 
33 0.0000 26.758 100.00 4.9451 23.626 70.879 
34 0.0000 25.426 0.0000 2.7473 4.3956 2.1978 
35 72.508 0.0000 100.00 35.165 23.077 75.275 
36 100.00 27.395 0.0000 73.077 13.187 13.187 
37 74.470 100.00 100.00 78.022 97.802 107.14 
38 100.00 0.0000 25.728 69.780 9.8901 14.835 
39 73.862 0.0000 0.0000 35.714 4.9451 6.0440 
40 100.00 100.00 25.402 112.64 82.418 47.802 
41 0.0000 75.751 100.00 24.176 59.341 85.714 
42 0.0000 75.172 0.0000 22.527 39.560 18.132 
43 0.0000 100.00 25.864 40.659 75.824 36.813 
44 100.00 0.0000 74.801 71.429 18.132 46.703 
45 0.0000 100.00 75.421 42.308 84.066 68.681 
46 24.577 0.0000 0.0000 3.8462 1.6484 1.0989 
47 26.321 100.00 0.0000 45.055 75.824 32.967 
48 100.00 75.835 0.0000 93.956 48.352 28.022 
49 100.00 100.00 77.061 113.74 93.407 80.769 
50 71.263 100.00 0.0000 73.077 79.121 38.462 
51 0.0000 0.0000 15.614 0.54945 1.0989 2.1978 
52 0.0000 30.049 70.936 4.3956 14.835 34.066 
53 100.00 77.691 100.00 94.505 68.132 98.352 
54 24.486 100.00 100.00 45.604 92.857 102.75 
55 100.00 62.784 31.909 85.165 35.165 28.571 
56 29.552 0.0000 100.00 7.6923 19.231 70.330 
57 32.980 70.921 100.00 27.473 53.297 85.165 
58 0.0000 27.681 40.241 3.8462 7.6923 12.088 
59 67.901 71.021 100.00 50.549 56.044 87.363 
60 28.154 100.00 67.829 46.703 83.516 61.538 
61 71.637 100.00 70.001 74.725 87.363 67.582 
62 58.822 58.763 53.586 34.615 30.220 30.769 
63 33.466 30.480 0.0000 10.440 7.1429 3.8462 
64 100.00 73.795 71.277 92.308 54.396 59.341 
65 68.394 29.692 0.0000 32.967 9.3407 7.6923 
66 70.399 0.0000 29.039 31.868 6.0440 9.8901 
67 28.078 0.0000 26.956 5.4945 2.1978 5.4945 
68 28.532 72.339 0.0000 25.275 36.813 17.582 
69 100.00 30.941 26.496 73.626 15.934 17.582 
70 34.597 0.0000 73.611 8.2418 10.440 34.615 
71 71.573 0.0000 72.408 34.615 13.187 37.912 
72 0.0000 71.029 29.412 19.780 36.264 20.330 
73 68.386 75.008 0.0000 51.099 43.407 21.978 
74 68.088 27.309 100.00 33.516 27.473 75.824 
75 100.00 26.457 73.749 72.527 22.527 47.253 
76 74.344 100.00 27.392 76.374 80.220 43.407 
77 27.558 100.00 28.197 45.055 76.374 38.462 
78 31.196 27.465 100.00 10.440 24.176 73.077 
79 0.0000 75.521 72.824 23.077 48.352 51.648 
80 0.0000 50.930 25.553 9.8901 18.681 11.538 
81 32.060 33.584 64.033 10.989 14.286 29.121 
82 81.666 55.380 0.0000 56.044 25.824 15.934 
83 68.257 32.751 58.286 34.066 16.484 28.022 
84 0.0000 55.248 81.585 12.637 31.868 51.648 
85 73.781 52.099 100.00 46.154 40.110 82.967 
86 100.00 50.537 82.952 80.220 36.264 63.187 
87 23.550 0.0000 50.439 4.3956 4.9451 16.484 
88 31.335 62.746 31.114 20.879 28.571 18.132 
89 100.00 18.310 49.418 72.527 14.835 26.374 
90 26.498 48.404 0.0000 13.187 15.934 8.2418 
91 47.910 100.00 85.744 56.044 90.110 81.868 
92 71.829 47.313 31.811 41.758 20.879 17.033 
93 31.304 64.132 69.316 22.527 36.813 42.857 
94 80.403 0.0000 54.321 43.407 10.440 24.176 
95 18.455 50.036 100.00 13.187 35.714 76.923 
96 50.653 100.00 16.345 56.044 77.473 36.813 
97 80.121 100.00 52.261 82.967 84.066 55.495 
98 0.0000 22.540 19.289 2.1978 4.3956 4.3956 
99 100.00 75.273 46.886 92.308 50.549 41.209 
100 0.0000 78.618 56.625 24.725 48.352 38.462 
101 51.137 80.627 100.00 42.857 65.385 91.758 
102 48.446 0.0000 17.864 14.835 2.7473 4.3956 
103 100.00 50.023 21.211 80.220 25.275 20.879 
104 50.115 20.118 0.0000 17.033 4.9451 3.8462 
105 58.099 72.426 33.158 40.659 40.110 25.275 
106 19.364 100.00 50.197 43.407 80.220 47.802 
107 50.683 19.177 100.00 19.231 23.626 72.527 
108 53.370 0.0000 81.576 18.681 14.286 46.703 
109 47.768 76.245 0.0000 36.264 41.758 20.879 
110 0.0000 18.927 55.503 2.1978 8.2418 19.780 
111 0.0000 13.277 0.0000 1.6484 2.1978 1.0989 
112 72.862 72.473 75.625 55.495 50.000 57.143 
113 100.00 13.904 0.0000 71.978 9.8901 11.538 
114 86.349 0.0000 100.00 52.747 25.275 75.824 
115 100.00 41.941 100.00 78.571 38.462 84.066 
116 100.00 81.785 16.464 97.802 56.593 33.516 
117 0.0000 44.063 52.596 8.2418 17.582 21.978 
118 0.0000 0.0000 58.917 1.6484 6.0440 21.429 
119 59.250 24.551 29.789 23.626 8.2418 10.440 
120 82.730 82.874 100.00 73.077 72.527 98.352 
121 80.039 0.0000 12.618 42.308 5.4945 7.6923 
122 60.957 47.729 77.817 32.418 28.022 49.451 
123 100.00 0.0000 38.618 70.879 10.989 19.780 
124 0.0000 40.090 100.00 7.6923 29.121 74.725 
125 0.0000 15.283 82.322 2.7473 13.736 45.604 
126 17.592 81.726 100.00 29.670 66.484 91.209 
127 100.00 14.130 100.00 72.527 28.571 81.319 
128 15.261 100.00 82.059 43.407 86.264 77.473 
129 47.770 79.418 60.389 39.011 51.648 43.956 
130 18.768 16.429 0.0000 3.8462 2.7473 1.6484 
131 55.634 100.00 65.763 60.989 83.516 62.637 
132 100.00 100.00 38.541 113.74 85.165 52.198 
133 17.421 0.0000 83.497 3.2967 13.187 45.604 
134 17.237 16.758 100.00 4.9451 21.429 69.780 
135 0.0000 15.067 30.039 1.6484 3.8462 6.0440 
136 0.0000 0.0000 86.505 2.1978 13.736 49.451 
137 75.736 72.799 50.020 58.242 44.505 36.813 
138 100.00 83.323 85.529 100.55 70.879 79.121 
139 100.00 100.00 64.894 112.64 90.659 69.780 
140 81.980 84.914 0.0000 72.527 57.692 29.670 
141 0.0000 63.757 15.490 15.385 28.022 14.286 
142 49.514 66.135 100.00 32.418 50.000 85.165 
143 100.00 0.0000 61.862 70.330 14.835 34.615 
144 24.308 45.410 49.831 11.538 18.132 21.429 
145 15.963 0.0000 17.047 2.1978 1.0989 2.7473 
146 87.497 100.00 100.00 94.505 97.253 109.34 
147 52.099 25.003 75.752 20.330 16.484 40.659 
148 14.909 81.162 0.0000 27.473 46.154 21.429 
149 0.0000 34.792 14.626 4.9451 8.2418 4.9451 
150 48.390 45.075 22.552 21.978 15.934 11.538 
151 83.545 65.965 100.00 64.835 53.846 87.912 
152 16.226 62.345 0.0000 16.484 26.923 12.088 
153 63.222 0.0000 14.914 25.824 3.8462 6.0440 
154 80.449 13.446 0.0000 43.407 6.5934 7.6923 
155 83.917 41.562 0.0000 52.747 17.033 12.637 
156 100.00 60.448 46.300 83.516 36.264 34.066 
157 15.584 0.0000 34.795 2.1978 2.7473 8.2418 
158 17.144 65.121 100.00 19.231 47.802 82.967 
159 83.602 55.334 62.667 58.242 31.868 40.110 
160 0.0000 82.190 14.220 26.923 48.352 23.077 
161 25.132 74.856 50.616 25.824 43.407 32.967 
162 0.0000 13.769 100.00 3.2967 20.330 70.330 
163 87.181 0.0000 0.0000 51.648 6.5934 8.2418 
164 0.0000 100.00 39.190 41.758 76.923 41.758 
165 78.047 65.914 19.865 56.593 34.615 21.429 
166 100.00 63.961 15.865 86.813 36.264 24.176 
167 100.00 45.955 36.032 78.571 24.176 24.176 
168 15.926 100.00 16.890 42.857 76.374 34.615 
169 41.459 100.00 0.0000 51.099 76.923 34.615 
170 48.707 37.288 48.139 19.780 14.835 20.330 
171 83.381 100.00 13.285 86.813 81.319 41.758 
172 78.129 25.303 75.621 42.857 19.231 44.505 
173 12.396 0.0000 0.0000 2.1978 0.54945 0.54945 
174 37.607 48.336 83.346 18.132 28.571 54.396 
175 35.588 15.356 0.0000 8.7912 3.2967 2.7473 
176 61.245 100.00 100.00 65.934 94.505 106.04 
177 100.00 67.290 87.195 89.560 51.648 75.275 
178 0.0000 0.0000 30.615 1.0989 2.1978 6.0440 
179 35.187 81.789 83.323 34.615 60.440 67.033 
180 39.525 80.194 22.879 34.615 46.703 25.275 
181 50.634 34.593 0.0000 19.780 9.3407 6.0440 
182 14.175 100.00 63.146 42.857 80.769 57.143 
183 83.493 17.728 34.574 48.352 9.8901 15.385 
184 23.463 22.014 79.943 7.1429 14.835 43.407 
185 18.066 31.847 0.0000 6.5934 7.1429 3.8462 
186 87.201 100.00 81.361 94.505 92.857 82.418 
187 0.0000 100.00 87.950 42.857 89.560 83.516 
188 34.476 17.888 46.220 8.7912 6.5934 14.835 
189 18.277 0.0000 67.390 3.2967 8.2418 28.571 
190 100.00 87.972 0.0000 102.20 64.286 35.165 
191 82.925 34.850 100.00 51.648 32.418 79.670 
192 0.0000 88.016 100.00 32.418 75.275 93.956 
193 36.104 85.655 100.00 37.912 72.527 93.956 
194 60.981 0.0000 0.0000 23.077 3.2967 4.3956 
195 51.466 61.826 78.106 30.769 37.912 52.747 
196 78.427 31.983 22.175 43.956 12.088 12.637 
197 66.017 44.321 0.0000 34.615 16.484 10.440 
198 83.941 0.0000 84.177 48.352 18.132 53.846 
199 20.158 46.612 23.269 10.440 15.385 10.440 
200 0.0000 100.00 62.618 41.758 80.220 57.143 
201 33.832 0.0000 13.933 7.1429 1.6484 3.2967 
202 100.00 17.286 16.322 71.429 10.989 13.736 
203 0.0000 42.204 83.926 8.2418 24.725 51.099 
204 0.0000 87.774 0.0000 30.769 56.044 25.275 
205 64.988 0.0000 59.017 27.473 9.3407 25.824 
206 14.677 0.0000 100.00 3.2967 19.231 70.330 
207 88.934 82.673 35.021 79.670 56.044 37.363 
208 0.0000 63.778 100.00 17.582 46.154 81.868 
209 83.429 17.674 100.00 48.901 25.824 78.022 
210 30.899 100.00 85.668 47.802 87.912 82.418 
211 83.680 0.0000 41.016 47.802 8.7912 17.582 
212 100.00 63.515 0.0000 86.264 35.165 22.527 
213 85.074 69.987 0.0000 67.582 39.011 22.527 
214 20.801 45.524 69.018 10.989 21.978 35.714 
215 21.382 82.482 73.017 30.769 58.242 54.396 
216 100.00 15.128 64.249 71.978 17.033 36.264 
217 36.522 0.0000 58.427 9.3407 7.1429 21.429 
218 22.466 81.296 33.007 29.121 49.451 26.923 
219 62.531 87.152 0.0000 54.396 58.242 28.022 
220 84.120 85.397 67.886 75.824 65.934 58.791 
221 18.870 27.336 45.389 5.4945 8.7912 14.835 
222 66.439 100.00 14.444 68.132 78.571 39.011 
223 41.636 22.147 19.003 12.637 5.4945 6.0440 
224 61.271 100.00 81.940 64.835 88.462 80.769 
225 86.013 100.00 0.0000 91.209 79.670 41.209 
226 37.570 0.0000 0.0000 8.7912 1.6484 2.1978 
227 100.00 16.132 84.102 72.527 22.527 57.692 
228 0.0000 100.00 13.619 41.209 75.275 34.066 
229 38.905 100.00 56.471 50.549 81.319 52.747 
230 100.00 15.382 34.563 71.978 12.088 18.132 
231 36.656 14.908 100.00 10.440 21.429 70.330 
232 0.0000 62.593 66.608 15.934 34.066 38.462 
233 66.347 12.528 100.00 30.220 23.626 73.626 
234 100.00 43.375 69.233 77.473 28.571 45.604 
235 100.00 56.360 61.236 81.868 35.714 42.857 
236 0.0000 86.194 44.955 29.670 57.143 35.714 
237 64.527 87.262 100.00 57.143 76.374 97.802 
238 34.411 0.0000 42.471 7.6923 4.3956 12.088 
239 80.230 59.707 85.120 56.044 41.758 64.286 
240 20.625 19.056 14.791 4.3956 3.8462 3.8462 
241 15.341 34.221 100.00 8.2418 26.374 73.077 
242 36.777 0.0000 87.905 9.8901 14.835 53.297 
243 34.598 56.247 100.00 20.330 40.110 79.121 
244 20.860 67.629 17.418 20.330 32.418 16.484 
245 44.958 60.843 18.054 26.374 26.923 15.385 
246 37.421 60.193 0.0000 21.978 25.824 12.088 
247 84.011 33.849 42.612 52.198 15.934 20.879 
248 17.241 60.339 37.743 15.934 27.473 19.231 
249 50.650 17.261 53.278 17.582 8.7912 20.879 
250 45.505 48.926 65.152 22.527 24.176 35.165 
251 44.567 84.081 39.649 40.110 53.846 32.967 
252 100.00 86.339 72.054 102.20 69.780 66.484 
253 68.140 61.135 0.0000 43.956 28.571 15.934 
254 17.930 66.986 81.403 20.330 42.308 56.593 
255 39.242 60.215 48.926 23.077 29.670 25.824 
256 20.099 18.770 62.967 4.9451 9.8901 25.824 
257 34.553 100.00 14.582 47.802 76.923 35.714 
258 87.345 0.0000 66.694 52.198 13.736 35.165 
259 0.0000 43.714 39.842 7.1429 14.835 14.835 
260 100.00 37.705 13.955 74.725 18.132 16.484 
261 31.265 86.993 0.0000 35.165 54.945 25.275 
262 51.402 82.661 81.338 43.407 61.538 67.033 
263 100.00 100.00 12.984 113.19 82.967 44.505 
264 0.0000 37.859 0.0000 5.4945 9.3407 4.9451 
265 62.092 58.215 100.00 37.912 44.505 81.868 
266 86.186 100.00 64.100 92.308 87.912 65.385 
267 100.00 35.251 85.898 75.824 29.670 62.088 
268 63.182 89.992 41.974 56.593 64.835 40.110 
269 13.504 100.00 0.0000 41.758 75.824 33.516 
270 100.00 0.0000 13.228 69.780 9.3407 12.088 
271 63.881 40.826 100.00 32.967 32.418 78.571 
272 69.387 84.838 20.792 58.791 56.044 29.670 
273 0.0000 70.279 45.136 19.231 37.363 26.923 
274 79.094 64.754 40.908 56.044 35.714 28.571 
275 62.385 54.099 17.396 34.615 23.077 14.286 
276 64.408 14.621 0.0000 26.923 4.9451 5.4945 
277 70.028 15.606 44.651 32.967 8.7912 17.582 
278 0.0000 63.544 0.0000 15.385 27.473 12.637 
279 83.475 47.274 20.502 54.396 20.330 15.934 
280 55.866 0.0000 32.671 19.780 4.3956 9.3407 
281 58.007 0.0000 100.00 23.077 21.429 73.077 
282 100.00 0.0000 87.698 71.978 21.978 61.538 
283 0.0000 13.792 67.215 1.6484 9.3407 28.571 
284 84.123 17.001 58.549 49.451 13.187 28.571 
285 59.579 32.873 15.966 25.824 10.440 8.2418 
286 10.410 32.998 28.659 5.4945 9.3407 8.2418 
287 17.231 40.031 85.650 9.3407 24.176 52.747 
288 37.568 41.561 10.108 14.835 12.637 7.6923 
289 0.0000 69.015 85.092 19.231 45.604 62.637 
290 14.442 100.00 36.187 42.308 77.473 41.209 
291 100.00 40.549 0.0000 75.275 18.681 15.934 
292 82.143 45.435 78.429 52.747 29.670 52.747 
293 52.674 0.0000 67.300 18.132 9.8901 31.319 
294 0.0000 87.868 66.793 31.319 62.088 51.648 
295 86.530 100.00 40.524 92.857 82.967 50.000 
296 71.777 85.586 67.232 63.187 63.736 55.495 
297 43.216 100.00 31.671 52.198 78.022 40.110 
298 39.245 32.908 85.845 14.835 21.429 52.747 
299 0.0000 45.662 67.543 8.2418 21.429 34.066 
300 12.161 100.00 100.00 43.956 94.505 101.10 
301 67.049 0.0000 85.516 29.670 17.033 52.747 
302 100.00 89.041 100.00 103.30 84.066 104.95 
303 20.246 60.698 56.526 16.484 30.220 30.769 
304 52.177 55.457 40.416 28.022 25.275 20.879 
305 72.617 87.018 83.932 63.736 69.780 75.824 
306 40.512 16.723 66.475 12.088 10.989 30.220 
307 68.507 49.232 50.605 39.011 23.626 27.473 
308 65.622 100.00 54.525 68.681 81.868 54.396 
309 54.115 37.240 66.394 24.176 18.681 34.066 
310 100.00 76.138 31.267 92.308 50.549 34.066 
311 54.728 65.623 0.0000 34.066 31.868 15.934 
312 63.126 12.526 64.370 26.374 11.538 30.220 
313 72.827 18.080 23.704 35.165 7.6923 9.8901 
314 23.268 15.278 34.947 4.9451 4.3956 8.7912 
315 87.648 68.954 59.645 70.879 43.407 43.956 
316 0.0000 85.595 85.198 30.769 64.835 71.429 
317 35.798 84.371 69.210 35.714 59.890 53.846 
318 36.062 47.494 35.919 15.934 17.582 15.385 
319 86.083 36.277 59.152 54.396 20.330 32.967 
320 58.210 100.00 30.361 61.538 78.571 41.758 
321 46.745 14.614 32.317 14.286 5.4945 9.3407 
322 81.573 73.869 86.954 65.385 56.593 73.626 
323 85.991 49.387 48.206 58.242 25.824 28.571 
324 28.062 87.906 19.654 35.165 56.593 28.022 
325 68.992 17.993 85.124 32.967 18.681 53.846 
326 100.00 66.147 100.00 89.011 55.495 92.857 
327 33.358 64.806 84.517 23.626 41.209 60.440 
328 41.351 17.736 80.522 12.637 15.385 45.055 
329 100.00 100.00 88.719 114.84 96.154 95.604 
330 66.336 0.0000 44.320 28.571 7.1429 15.934 
331 64.850 67.090 12.293 43.956 34.066 18.681 
332 15.262 31.268 63.277 6.0440 13.736 27.473 
333 15.008 43.663 37.300 8.7912 15.385 13.736 
334 0.0000 57.895 38.078 13.187 24.725 18.132 
335 66.599 58.458 67.871 40.659 33.516 43.407 
336 59.191 18.651 15.215 23.077 6.0440 6.5934 
337 66.781 31.140 84.629 32.418 22.527 54.396 
338 88.033 85.158 52.140 81.319 61.538 47.802 
339 36.882 100.00 100.00 50.549 92.857 103.30 
340 26.102 33.094 17.006 8.2418 8.2418 6.0440 
341 56.309 36.861 35.862 25.275 13.187 14.835 
342 45.839 65.587 67.033 29.670 37.912 42.308 
343 83.709 81.172 16.406 73.077 52.747 29.121 
344 0.0000 48.132 13.005 8.7912 16.484 8.2418 
345 87.176 50.021 100.00 62.637 41.209 83.516 
346 51.219 84.244 13.730 43.956 53.297 26.374 
347 60.606 71.415 48.406 42.308 41.758 32.418 
348 0.0000 11.359 12.718 1.0989 2.1978 2.1978 
349 86.429 49.705 33.145 58.791 24.176 21.429 
350 34.056 40.958 100.00 14.835 30.769 75.275 
351 100.00 30.557 59.628 73.077 20.330 35.165 
352 88.497 26.902 13.449 56.044 11.538 12.088 
353 14.167 51.980 88.218 13.187 31.868 59.890 
354 13.784 12.983 49.370 2.7473 6.0440 15.385 
355 15.018 88.441 48.062 33.516 60.989 38.462 
356 87.790 25.769 89.215 56.044 24.725 62.637 
357 0.0000 33.206 55.865 4.9451 12.637 21.978 
358 74.324 76.029 35.536 58.242 46.703 30.769 
359 65.863 57.223 42.324 39.560 28.022 24.176 
360 30.893 54.646 13.136 16.484 21.429 10.989 
361 0.0000 34.360 28.321 4.9451 9.3407 8.7912 
362 15.443 77.087 85.116 25.824 54.945 66.484 
363 63.381 68.947 68.521 43.407 43.407 47.802 
364 69.733 27.566 42.917 34.066 11.538 18.132 
365 32.754 100.00 42.760 47.253 78.022 44.505 
366 47.096 29.481 34.829 17.033 9.3407 12.088 
367 8.5451 71.948 62.695 21.429 41.758 40.110 
368 0.0000 86.048 29.300 30.220 54.396 28.571 
369 53.697 51.572 85.367 29.121 32.967 58.242 
370 17.608 56.690 12.515 14.286 21.978 11.538 
371 90.638 14.414 49.227 58.242 12.088 23.626 
372 63.248 63.640 89.550 41.758 44.505 68.132 
373 100.00 85.976 58.455 101.65 67.582 53.846 
374 9.8311 28.027 7.5567 4.3956 6.0440 3.2967 
375 89.831 64.313 69.506 69.780 42.308 51.099 
376 31.754 12.995 25.543 7.1429 3.8462 6.0440 
377 75.914 45.966 64.957 45.604 25.275 37.912 
378 7.5735 50.695 58.941 10.989 22.527 28.571 
379 100.00 69.835 58.912 90.110 46.154 46.154 
380 32.211 34.376 48.339 10.989 12.637 18.132 
381 13.901 12.159 73.555 3.2967 10.989 34.615 
382 87.071 9.0280 77.653 52.198 17.582 46.154 
383 23.272 85.409 84.290 33.516 65.934 69.231 
384 93.289 39.480 26.145 65.385 18.681 17.582 
385 65.769 59.630 30.967 40.110 29.121 20.330 
386 100.00 32.265 41.803 73.077 17.582 24.176 
387 86.568 85.281 86.961 79.121 71.978 80.769 
388 52.577 86.830 30.016 45.604 58.242 31.868 
389 47.921 40.199 76.902 20.330 21.978 45.055 
390 22.360 86.619 61.580 33.516 59.890 47.802 
391 52.232 33.601 88.787 21.978 23.626 58.791 
392 0.0000 28.523 86.267 4.9451 18.681 51.648 
393 43.497 67.879 39.551 29.121 34.615 24.725 
394 39.877 45.261 0.0000 17.033 14.835 7.6923 
395 86.940 12.430 24.699 52.198 8.7912 12.088 
396 28.363 55.339 90.398 17.582 35.714 63.736 
397 39.018 70.534 57.879 28.571 40.659 36.264 
398 12.833 28.519 78.828 5.4945 16.484 42.308 
399 68.350 31.815 69.975 33.516 18.681 37.912 
400 56.520 26.226 41.626 23.077 9.8901 15.385 
401 12.938 46.218 0.0000 9.3407 14.835 7.1429 
402 8.6938 60.179 26.117 14.286 25.824 15.385 
403 51.995 89.429 96.608 48.901 76.923 92.857 
404 46.905 47.746 48.909 21.978 20.879 23.077 
405 14.352 81.814 19.479 28.022 48.901 23.626 
406 71.482 38.117 12.273 37.363 13.736 10.440 
407 86.616 60.785 10.012 63.736 31.319 19.231 
408 71.811 88.979 52.186 64.286 65.385 46.703 
409 43.213 100.00 72.083 51.648 85.714 67.582 
410 73.920 23.444 8.2853 37.363 8.2418 8.2418 
411 40.629 85.534 53.423 38.462 58.242 41.758 
412 38.955 52.128 22.885 19.231 19.780 12.637 
413 46.480 12.229 8.6707 13.736 3.8462 3.8462 
414 40.855 33.301 22.309 14.835 9.3407 8.2418 
415 76.365 66.787 61.060 55.495 40.110 41.758 
416 7.5076 12.025 20.590 1.6484 2.1978 3.8462 
417 85.930 27.031 0.0000 52.747 10.989 9.8901 
418 100.00 87.757 44.060 103.30 66.484 46.154 
419 41.543 25.624 54.896 13.187 10.440 21.429 
420 59.533 76.669 91.789 46.154 59.341 76.923 
421 58.226 12.079 28.862 22.527 5.4945 8.7912 
422 50.514 8.8602 88.281 17.582 17.033 54.396 
423 41.983 0.0000 31.301 11.538 3.2967 7.6923 
424 28.024 36.455 77.877 10.440 20.330 43.956 
425 12.718 41.027 11.129 7.6923 12.088 6.5934 
426 26.194 75.573 88.088 26.923 53.846 69.780 
427 28.936 71.474 37.671 24.176 37.912 24.725 
428 90.497 74.770 26.512 76.923 45.604 29.670 
429 17.514 75.984 41.507 24.725 42.857 28.571 
430 16.621 64.069 68.891 18.132 35.714 42.308 
431 12.420 21.661 36.669 3.8462 6.0440 9.3407 
432 52.915 46.814 10.465 25.275 16.484 10.440 
433 56.979 91.194 52.490 53.846 67.033 45.604 
434 25.140 52.299 42.419 14.286 21.429 18.681 
435 25.587 6.8296 13.004 4.9451 2.1978 2.7473 
436 55.018 14.818 41.328 20.330 7.1429 13.736 
437 93.397 56.942 87.959 73.626 42.857 69.231 
438 28.374 12.057 85.683 6.5934 14.835 49.451 
439 78.265 6.7088 92.468 41.758 21.429 63.736 
440 39.694 71.314 6.3658 28.571 36.813 17.582 
441 73.259 45.059 87.294 43.407 30.769 62.088 
442 26.381 57.692 76.454 17.582 32.418 47.802 
443 66.587 33.629 31.299 32.418 12.637 13.736 
444 88.523 74.434 46.718 75.275 47.802 37.363 
445 76.836 59.920 49.912 52.198 32.967 30.769 
446 33.152 90.418 31.148 39.011 62.637 32.418 
447 55.924 53.388 68.505 30.220 29.670 40.110 
448 77.248 91.798 41.448 73.626 69.780 42.857 
449 26.737 89.225 45.445 36.264 62.088 38.462 
450 87.642 100.00 25.942 92.857 82.418 44.505 
451 68.631 100.00 40.532 69.780 81.319 47.253 
452 14.485 50.449 49.078 11.538 20.879 21.978 
453 10.654 10.664 89.702 3.2967 15.934 53.846 
454 31.962 49.108 62.920 15.385 23.626 32.418 
455 8.6779 22.468 68.278 3.8462 12.088 30.220 
456 74.727 90.586 6.3447 68.681 63.736 32.418 
457 0.0000 12.136 44.106 2.1978 4.9451 12.088 
458 43.350 78.123 73.610 34.615 52.747 55.495 
459 10.925 11.786 9.5801 1.6484 1.6484 1.6484 
460 15.591 37.386 50.832 7.6923 13.736 19.780 
461 10.685 68.959 9.3113 19.231 32.967 15.385 
462 92.017 72.247 12.692 78.022 42.308 25.824 
463 89.839 77.431 73.400 79.121 57.143 60.440 
464 47.450 74.511 18.753 34.615 40.110 21.429 
465 50.097 90.816 69.461 48.901 69.780 58.242 
466 82.755 34.052 82.994 51.099 25.275 54.945 
467 46.786 72.919 85.794 34.615 51.099 65.934 
468 9.3304 90.457 73.518 34.615 69.231 59.890 
469 88.590 61.902 22.128 67.582 32.967 22.527 
470 100.00 61.262 74.222 84.615 42.857 56.593 
471 86.777 8.8992 8.4672 51.099 7.1429 9.3407 
472 39.582 85.966 11.798 37.912 54.945 26.374 
473 85.958 0.0000 24.986 49.451 7.6923 11.538 
474 80.299 22.552 47.163 43.956 12.088 21.429 
475 7.2180 45.128 76.547 8.7912 23.626 43.407 
476 55.989 48.521 58.428 28.571 23.626 30.769 
477 50.728 10.774 73.284 17.033 12.088 37.363 
478 71.269 10.344 11.008 33.516 5.4945 7.1429 
479 91.768 45.194 10.385 65.385 19.780 15.385 
480 7.8976 42.553 25.130 7.6923 13.187 9.3407 
481 54.269 55.846 25.175 29.121 23.626 15.385 
482 41.937 24.646 5.4249 13.187 6.0440 4.3956 
483 89.502 33.423 70.991 59.341 21.978 42.308 
484 75.301 54.745 14.159 47.802 24.725 15.934 
485 76.653 6.2202 65.750 39.011 12.637 32.967 
486 58.072 77.769 7.4688 43.956 45.604 22.527 
487 27.429 73.801 76.267 26.374 48.352 54.945 
488 39.961 56.279 74.128 22.527 31.319 46.154 
489 23.430 28.561 70.622 7.6923 14.286 34.066 
490 91.285 49.258 68.377 67.033 30.220 44.505 
491 95.591 89.122 11.382 96.703 65.385 35.714 
492 28.451 92.151 76.841 39.011 73.077 65.934 
493 26.242 26.080 53.808 7.1429 9.8901 20.330 
494 15.957 92.746 24.983 35.714 64.835 31.868 
495 13.563 9.1545 61.533 2.7473 7.1429 23.626 
496 13.216 24.593 54.939 4.3956 9.3407 20.330 
497 91.885 89.769 79.537 91.758 75.275 75.824 
498 100.00 88.684 29.334 103.85 65.385 40.659 
499 34.090 65.771 20.136 23.626 30.769 16.484 
500 20.961 77.373 9.9329 26.374 42.308 20.330 
501 48.985 66.059 50.556 31.868 35.714 30.220 
502 92.409 9.0241 90.897 60.989 22.527 64.286 
503 40.340 11.090 52.408 10.989 7.1429 18.132 
504 41.367 58.198 88.277 24.176 37.363 62.637 
505 72.147 77.604 91.982 57.692 61.538 79.670 
506 12.761 67.714 50.147 19.231 35.714 29.121 
507 76.617 25.882 91.445 41.758 24.176 64.286 
508 92.734 34.742 50.285 63.187 19.231 27.473 
509 16.114 24.640 92.845 5.4945 20.330 60.440 
510 22.589 72.255 61.762 23.077 42.857 40.110 
511 79.742 58.911 30.090 53.846 29.670 21.978 
512 75.000 100.00 87.265 77.473 91.758 89.560 
513 22.068 58.052 24.509 15.385 23.626 13.736 
514 29.302 20.341 8.3315 7.1429 3.8462 3.2967 
515 75.009 40.707 41.951 43.407 17.582 20.879 
516 76.599 13.357 74.764 40.659 15.385 42.308 
517 10.272 88.110 94.612 33.516 71.978 85.714 
518 34.093 23.728 89.777 10.440 19.231 56.593 
519 29.867 13.694 72.950 7.1429 11.538 35.165 
520 64.983 91.010 77.614 60.989 73.626 68.132 
521 66.135 26.770 20.928 30.220 9.3407 9.3407 
522 36.207 25.309 75.344 10.989 14.835 39.011 
523 78.931 73.018 10.687 60.989 42.308 23.077 
524 30.391 22.415 20.277 7.6923 5.4945 4.9451 
525 11.242 82.956 64.472 28.571 56.593 47.802 
526 80.459 87.628 28.607 72.527 61.538 36.264 
527 27.707 31.870 88.315 9.8901 21.429 56.044 
528 62.060 36.458 46.606 29.121 14.835 20.330 
529 29.542 11.104 53.546 6.5934 6.5934 19.231 
530 68.762 19.114 33.778 32.418 8.2418 12.637 
531 59.637 48.524 31.174 30.769 19.780 15.934 
532 48.298 33.520 100.00 20.330 28.022 74.176 
533 45.598 28.163 66.475 15.934 14.286 31.868 
534 29.918 44.928 90.506 13.736 29.121 61.538 
535 78.316 92.636 77.206 74.725 78.571 71.978 
536 91.281 57.367 55.776 68.681 33.516 37.363 
537 21.692 25.080 26.495 6.0440 6.0440 7.1429 
538 74.304 63.813 94.636 52.198 47.802 79.121 
539 88.481 29.745 32.468 56.593 13.736 17.033 
540 59.486 41.236 87.042 29.670 26.923 58.242 
541 92.045 78.449 60.137 82.967 54.945 50.000 
542 61.977 24.673 6.6648 26.374 7.6923 6.0440 
543 40.162 92.786 90.522 45.055 79.670 82.967 
544 36.748 77.066 93.097 32.418 58.791 77.473 
545 20.161 69.446 29.150 20.879 35.165 19.780 
546 47.187 88.771 0.0000 43.956 58.791 27.473 
547 44.188 43.219 90.474 19.780 29.121 62.088 
548 8.9634 92.695 8.7975 35.165 63.736 29.121 
549 32.387 45.286 72.510 14.286 23.626 40.110 
550 48.879 44.876 39.601 21.978 17.582 17.582 
551 61.287 11.463 77.817 25.275 14.835 43.407 
552 25.396 43.768 11.365 10.989 13.736 7.6923 
553 76.983 53.137 73.131 50.000 31.868 48.352 
554 43.083 65.437 28.359 27.473 31.319 19.231 
555 11.708 51.209 32.796 10.989 19.231 14.286 
556 71.238 41.136 23.296 39.560 15.934 13.187 
557 21.758 7.4731 22.877 3.8462 2.7473 4.3956 
558 23.721 37.471 27.997 8.7912 10.989 8.7912 
559 10.847 0.0000 52.434 1.6484 4.9451 17.033 
560 52.184 32.794 25.185 20.330 9.8901 9.8901 
561 25.164 57.264 2.5113 15.934 23.077 10.989 
562 25.531 62.973 45.088 19.231 30.769 24.176 
563 59.406 92.015 9.9812 54.945 65.385 31.319 
564 9.0031 43.883 94.414 9.3407 29.670 66.484 
565 29.380 24.618 40.510 7.6923 7.6923 12.637 
566 56.497 10.252 5.6832 20.330 3.8462 4.3956 
567 70.521 20.255 56.201 33.516 12.088 25.275 
568 81.365 40.212 31.436 50.000 17.033 17.582 
569 56.550 19.280 86.012 23.077 18.132 53.297 
570 25.096 37.115 57.433 9.8901 15.385 24.176 
571 87.229 43.818 88.570 59.890 32.967 64.835 
572 9.0945 89.498 36.178 32.967 60.989 33.516 
573 60.107 91.337 22.013 54.396 64.286 32.967 
574 43.216 91.406 24.486 43.407 62.637 31.868 
575 55.315 58.321 10.243 30.769 25.275 14.286 
576 63.269 92.590 62.685 59.341 72.527 55.495 
577 20.915 89.348 8.0709 34.066 57.692 26.923 
578 33.841 42.636 23.687 13.736 13.736 9.8901 
579 82.320 36.054 11.955 49.451 14.286 12.088 
580 78.197 45.345 53.373 48.352 22.527 29.121 
581 87.492 64.105 49.348 67.582 37.912 34.066 
582 80.208 74.738 68.707 65.385 51.648 52.198 
583 12.847 33.194 39.194 6.0440 9.8901 12.088 
584 15.215 55.484 78.368 14.286 31.868 48.352 
585 25.437 6.1049 39.533 4.9451 3.8462 10.440 
586 57.870 49.584 46.944 30.220 22.527 23.626 
587 67.620 65.849 53.975 45.604 37.912 34.615 
588 26.643 41.991 38.871 10.989 14.835 14.835 
589 42.800 8.7865 22.456 12.088 3.2967 5.4945 
590 57.049 35.385 77.322 25.824 20.879 45.604 
591 36.112 43.832 54.787 15.385 18.681 25.275 
592 62.719 62.395 77.348 39.560 39.011 54.396 
593 60.706 81.416 54.884 48.901 54.396 42.308 
594 90.695 4.9508 56.719 57.143 12.637 28.571 
595 43.936 24.373 43.898 14.286 8.7912 15.385 
596 4.3825 24.210 30.612 3.2967 6.0440 7.1429 
597 53.911 79.942 42.742 43.407 50.000 32.967 
598 90.172 22.149 68.288 58.242 18.132 38.462 
599 77.586 29.345 63.000 42.857 17.033 32.418 
600 60.572 25.668 63.187 25.824 13.736 29.670 
601 97.729 10.927 74.359 67.582 18.681 46.154 
602 57.769 8.0576 53.146 21.429 8.2418 20.879 
603 77.517 92.691 61.488 73.077 73.626 57.143 
604 44.198 38.831 60.002 18.132 17.582 28.022 
605 65.034 81.736 33.440 52.198 52.198 31.319 
606 67.829 69.791 24.123 47.253 37.363 23.077 
607 25.001 99.668 13.437 44.505 74.725 35.165 
608 89.683 25.837 56.548 57.692 15.934 29.670 
609 41.656 51.246 11.867 20.330 19.231 10.989 
610 23.720 38.131 96.840 10.440 26.923 68.681 
611 78.049 6.5915 25.803 40.659 6.5934 10.440 
612 46.116 56.291 55.290 25.275 28.022 29.670 
613 92.023 9.1483 37.844 58.791 10.440 17.582 
614 91.068 89.904 23.497 89.560 66.484 37.912 
615 76.477 27.045 32.402 40.659 11.538 14.286 
616 42.661 5.2197 80.136 12.637 13.736 43.956 
617 6.2584 65.435 77.208 17.582 39.560 51.099 
618 89.710 95.846 52.578 91.758 79.670 54.945 
619 88.397 77.149 94.397 76.374 63.736 87.363 
620 78.888 91.034 93.609 74.725 80.769 92.857 
621 47.820 92.501 59.000 47.802 68.681 50.549 
622 23.826 47.444 80.539 12.637 26.923 49.451 
623 9.0413 12.290 37.978 2.1978 3.8462 9.8901 
624 23.331 16.308 46.267 5.4945 6.0440 14.286 
625 35.756 10.704 35.900 8.7912 4.3956 9.3407 
626 2.9969 77.210 88.879 24.725 56.044 70.330 
627 28.436 75.743 23.117 27.473 41.209 21.429 
628 9.0221 78.989 30.580 25.275 45.604 24.725 
629 8.8030 17.371 0.30943 2.1978 3.2967 1.6484 
630 60.160 36.719 3.7856 27.473 12.088 8.2418 
631 7.0698 90.899 57.373 34.066 66.484 45.604 
632 79.721 9.5270 45.163 42.857 9.3407 19.231 
633 10.879 74.236 95.746 23.626 56.044 80.220 
634 64.217 22.086 74.373 28.022 15.934 40.659 
635 70.017 40.853 76.607 37.912 24.725 47.802 
636 4.7334 24.411 48.203 3.2967 7.6923 15.934 
637 50.973 26.358 13.005 18.681 7.1429 6.0440 
638 2.5724 55.065 90.994 12.637 34.615 64.286 
639 90.879 45.601 57.982 64.286 25.275 34.615 
640 68.145 79.947 44.862 54.945 51.099 35.714 
641 1.4829 67.595 54.158 18.681 35.714 31.319 
642 98.031 12.492 26.865 68.132 10.440 14.835 
643 76.470 93.209 18.886 73.626 69.231 35.165 
644 87.292 66.922 80.462 69.780 47.802 62.088 
645 10.233 96.829 47.233 39.560 73.626 43.407 
646 68.028 67.167 39.031 46.703 36.813 26.374 
647 45.312 94.998 9.2426 48.352 69.231 32.418 
648 77.970 53.709 40.015 49.451 26.374 24.176 
649 39.314 57.645 38.800 21.429 25.824 20.330 
650 57.297 82.865 67.439 46.703 59.341 52.747 
651 37.555 22.599 31.928 10.989 6.5934 8.7912 
652 92.350 23.597 40.911 61.538 13.187 20.330 
653 9.3660 69.976 21.141 19.780 34.615 18.132 
654 51.187 19.140 23.012 18.132 5.4945 7.1429 
655 79.397 80.212 79.858 68.132 61.538 67.033 
656 95.392 55.226 12.927 75.275 28.022 19.780 
657 41.375 92.945 46.055 45.055 68.132 41.209 
658 45.146 82.618 89.901 40.110 64.835 76.923 
659 77.443 63.822 71.275 54.945 41.209 50.000 
660 53.973 31.254 55.289 21.978 13.736 24.176 
661 67.321 92.812 91.875 63.736 82.418 89.011 
662 39.436 37.141 40.709 14.286 13.187 15.385 
663 97.731 46.918 91.781 74.725 37.912 73.077 
664 40.993 6.1961 67.428 10.989 9.8901 30.220 
665 79.123 80.606 57.718 65.934 56.044 46.703 
666 28.913 52.537 29.968 15.385 20.330 14.286 
667 14.658 37.254 73.035 7.6923 18.681 37.912 
668 82.795 16.173 87.132 47.802 20.879 58.242 
669 8.3262 91.659 83.695 35.714 73.077 72.527 
670 45.527 77.031 49.285 35.714 46.703 34.615 
671 9.0854 40.031 62.080 7.6923 17.033 28.022 
672 95.919 70.219 40.212 83.516 43.956 33.516 
673 42.670 92.336 77.786 46.154 74.725 67.582 
674 94.260 40.143 78.486 68.132 28.571 53.297 
675 65.647 53.082 89.436 39.011 36.264 64.835 
676 81.521 18.364 16.183 45.055 8.2418 9.3407 
677 8.4681 2.0260 9.4857 1.6484 1.0989 1.6484 
678 30.651 60.550 56.553 19.780 30.769 31.319 
679 53.483 73.043 73.646 37.363 48.352 53.297 
680 90.408 54.335 1.4985 65.934 25.824 18.132 
681 26.668 7.7075 63.496 6.0440 8.2418 25.824 
682 58.933 25.917 94.913 25.275 23.077 67.033 
683 9.8548 0.76371 72.617 2.1978 9.8901 33.516 
684 47.990 75.517 31.176 35.714 42.857 25.275 
685 48.087 9.0808 60.091 15.385 8.2418 24.176 
686 10.988 21.876 19.614 3.2967 4.3956 4.3956 
687 22.598 55.646 65.078 15.385 28.022 35.714 
688 9.0697 82.142 78.531 28.571 59.341 60.440 
689 90.301 42.459 39.120 62.637 20.879 22.527 
690 47.378 36.472 11.171 18.681 10.989 7.6923 
691 49.382 1.8032 9.6600 15.385 2.7473 3.8462 
692 1.9703 20.522 9.5307 2.7473 3.8462 2.7473 
693 81.649 69.738 31.735 62.637 40.110 27.473 
694 34.530 73.626 67.130 28.571 46.154 45.604 
695 81.659 80.940 43.479 69.231 54.396 39.011 
696 10.291 63.628 90.197 17.033 41.758 67.033 
697 9.3825 51.554 18.669 10.440 18.132 10.440 
698 17.762 96.201 72.191 40.659 76.923 63.736 
699 67.560 52.693 6.6256 39.011 21.978 13.187 
700 45.853 7.7641 41.225 13.736 5.4945 12.637 
701 10.950 73.197 73.054 22.527 46.154 50.549 
702 30.698 39.723 1.5250 11.538 10.989 6.0440 
703 81.002 52.333 91.825 54.396 39.011 70.879 
704 51.213 8.0050 98.430 18.132 21.429 69.231 
705 5.4368 7.4372 80.307 2.1978 12.637 42.308 
706 23.483 5.5586 76.358 4.9451 10.989 37.912 
707 32.278 78.328 11.186 30.220 43.956 20.879 
708 4.5816 10.694 55.933 2.1978 6.5934 19.780 
709 89.829 62.524 36.614 70.330 34.615 28.022 
710 80.544 47.439 8.1742 51.099 20.330 13.736 
711 52.750 18.751 64.422 19.231 12.088 29.121 
712 62.358 2.6644 71.659 25.275 12.088 36.264 
713 64.674 45.928 67.561 34.615 24.725 37.912 
714 9.4766 33.184 90.141 6.5934 22.527 57.143 
715 70.466 56.323 80.091 43.956 36.264 56.044 
716 57.237 71.111 99.776 40.659 56.044 87.912 
717 87.665 54.898 77.235 62.637 36.264 54.945 
718 16.330 71.595 0.85939 20.879 35.714 16.484 
719 35.300 79.117 32.908 31.319 46.703 27.473 
720 28.667 65.599 9.3944 20.879 29.670 14.835 
721 6.4435 54.089 70.225 12.637 27.473 39.560 
722 61.839 6.8281 38.810 25.275 6.0440 13.187 
723 26.820 89.870 94.786 37.912 75.275 87.363 
724 5.7523 92.776 20.962 35.165 63.187 30.769 
725 75.073 63.309 7.8752 51.648 31.319 18.132 
726 61.102 20.846 50.693 25.824 9.8901 20.330 
727 22.212 92.446 35.502 37.363 65.385 34.615 
728 92.086 35.290 8.3735 62.637 15.385 13.187 
729 6.1371 56.812 8.6847 12.637 22.527 10.440 
730 17.496 95.134 90.968 39.011 81.868 85.714 
731 97.652 22.856 91.040 68.681 26.374 68.132 
732 49.838 56.677 94.927 28.571 39.560 74.176 
733 52.347 66.189 89.979 34.066 46.154 70.330 
734 9.2025 61.070 60.052 15.385 30.769 32.967 
735 91.322 33.889 95.067 62.637 30.769 73.626 
736 35.535 50.421 47.701 17.033 21.429 21.978 
737 90.687 67.765 92.424 75.275 53.297 79.121 
738 23.140 27.979 7.2528 6.5934 6.0440 3.8462 
739 74.571 37.346 94.340 42.308 29.670 69.231 
740 94.499 74.711 82.469 84.615 58.242 70.330 
741 43.662 60.242 6.7089 24.725 25.824 13.187 
742 94.229 53.959 43.646 71.978 29.670 28.571 
743 88.819 11.383 66.503 54.945 14.835 35.714 
744 32.047 21.909 62.334 8.7912 10.989 26.374 
745 54.950 92.541 82.626 52.747 76.923 75.275 
746 71.956 56.212 58.905 44.505 30.220 35.714 
747 99.325 70.902 23.244 88.462 43.407 29.121 
748 90.147 23.875 23.537 57.143 11.538 13.736 
749 4.9251 37.670 45.258 6.5934 12.637 16.484 
750 92.003 4.3641 46.508 58.791 10.989 22.527 
751 8.0287 68.481 36.597 18.681 34.066 22.527 
752 94.712 55.380 27.877 73.626 28.571 23.077 
753 59.036 41.793 22.693 28.022 14.835 11.538 
754 75.085 4.1457 81.543 38.462 16.484 48.352 
755 63.301 73.580 81.794 46.703 52.198 63.187 
756 87.889 97.159 72.707 91.758 86.264 71.429 
757 39.453 9.5152 91.318 11.538 17.582 57.143 
758 26.353 18.572 94.841 7.1429 19.780 62.637 
759 19.325 8.4249 4.4960 3.2967 1.6484 1.6484 
760 14.945 80.063 53.214 26.923 50.549 36.813 
761 56.393 7.7606 18.733 19.780 3.8462 6.0440 
762 53.296 91.987 40.941 50.549 66.484 39.560 
763 91.714 5.4089 17.461 57.143 7.6923 11.538 
764 35.214 69.883 47.511 25.824 37.363 29.670 
765 54.174 65.046 39.976 34.066 32.967 24.725 
766 0.48739 73.380 13.583 20.879 36.813 18.132 
767 45.038 24.464 90.440 15.934 20.330 58.791 
768 63.657 41.354 57.623 32.418 19.231 28.571 
769 60.349 99.318 73.525 64.286 85.714 69.780 
770 45.802 53.303 31.659 23.626 22.527 15.934 
771 66.010 80.362 74.383 53.297 58.242 58.791 
772 23.949 64.714 91.592 20.330 43.956 68.681 
773 74.347 9.4171 54.078 37.363 10.440 23.077 
774 92.529 91.743 63.785 92.857 75.275 60.440 
775 27.251 94.198 55.878 40.110 71.429 48.352 
776 35.570 11.733 10.395 8.2418 2.7473 3.2967 
777 2.5649 51.038 46.451 10.440 20.879 20.879 
778 91.133 22.688 78.884 58.791 21.429 50.549 
779 9.3684 3.2632 25.712 1.6484 2.1978 4.3956 
780 89.782 58.781 98.566 68.681 46.703 86.264 
781 91.178 92.619 40.078 92.308 71.429 46.154 
782 67.918 75.593 60.707 51.648 48.901 44.505 
783 21.214 7.6666 93.134 4.9451 17.033 59.890 
784 16.312 15.496 27.702 3.2967 3.8462 6.0440 
785 55.058 61.647 63.033 32.967 34.066 37.912 
786 64.827 43.743 39.237 33.516 18.132 18.681 
787 76.437 76.558 23.556 60.440 46.154 26.374 
788 23.505 31.715 37.321 7.6923 9.3407 11.538 
789 73.049 16.469 95.896 37.363 23.626 68.681 
790 86.350 91.415 7.6506 83.516 68.132 35.165 
791 75.383 18.628 65.782 38.462 14.286 33.516 
792 69.893 90.723 32.423 63.187 65.385 37.363 
793 48.410 50.555 75.728 24.176 28.571 46.154 
794 66.070 6.5086 22.487 28.022 5.4945 7.6923 
795 56.705 65.792 24.032 35.714 32.418 19.780 
796 76.562 34.662 51.314 42.857 16.484 25.275 
797 79.282 37.864 70.629 46.703 22.527 41.758 
798 61.860 83.501 85.092 52.198 63.736 72.527 
799 55.206 71.204 58.769 38.462 42.308 39.011 
800 41.161 67.679 77.016 28.571 42.308 53.297 
801 39.082 35.254 73.407 14.835 18.681 38.462 
802 54.232 98.131 91.703 58.791 90.110 89.560 
803 52.316 68.565 11.225 34.066 34.066 17.582 
804 13.126 31.651 17.948 4.9451 7.6923 5.4945 
805 41.211 67.640 94.245 29.121 48.901 75.824 
806 6.2691 78.009 44.653 24.176 46.154 30.769 
807 18.472 48.506 58.249 10.989 21.429 28.022 
808 91.193 95.684 89.468 94.505 89.011 92.857 
809 90.576 89.753 96.277 88.462 81.868 98.352 
810 91.055 18.181 4.8873 57.692 9.3407 10.989 
811 9.5158 57.466 44.934 13.187 25.275 22.527 
812 74.253 8.6243 35.462 36.813 7.1429 13.736 
813 30.958 79.592 58.964 30.769 50.000 41.758 
814 64.297 44.200 12.447 32.967 16.484 10.989 
815 90.387 78.022 2.1230 79.670 48.352 27.473 
816 38.276 57.670 62.470 21.978 29.670 34.615 
817 69.306 81.298 10.013 56.593 51.099 26.374 
818 11.786 56.194 98.458 14.286 39.560 76.374 
819 37.361 92.605 63.696 42.857 71.429 53.846 
820 99.099 26.774 11.310 70.330 13.187 14.286 
821 33.690 80.487 44.100 31.868 50.000 32.967 
822 58.378 47.696 96.771 30.769 35.165 74.725 
823 8.3100 80.971 8.1118 26.374 46.703 21.978 
824 36.053 31.424 11.914 11.538 7.6923 5.4945 
825 23.960 74.365 97.709 26.374 56.044 84.066 
826 2.2643 18.895 91.763 3.2967 17.582 58.242 
827 33.230 92.745 7.8538 41.209 63.187 29.121 
828 74.486 38.764 0.43818 41.209 13.736 9.8901 
829 72.293 67.732 84.511 52.198 47.802 65.385 
830 71.349 55.278 23.750 43.956 25.275 17.033 
831 10.998 19.916 82.596 3.8462 15.385 45.604 
832 1.5798 33.328 79.698 6.0440 18.681 43.956 
833 61.955 8.9911 90.766 25.824 18.681 59.341 
834 44.195 40.277 31.491 18.132 14.286 12.088 
835 59.060 79.425 21.320 45.604 48.352 25.824 
836 9.8214 2.9467 42.842 2.1978 3.8462 11.538 
END_DATA
CAL    

DESCRIPTOR "Argyll Device Calibration State"
ORIGINATOR "Argyll dispread"
CREATED "Thu Jan  5 17:24:43 2012"
KEYWORD "DEVICE_CLASS"
DEVICE_CLASS "DISPLAY"
KEYWORD "COLOR_REP"
COLOR_REP "RGB"

KEYWORD "RGB_I"
NUMBER_OF_FIELDS 4
BEGIN_DATA_FORMAT
RGB_I RGB_R RGB_G RGB_B 
END_DATA_FORMAT

NUMBER_OF_SETS 256
BEGIN_DATA
0.0000 0.0000 0.0000 0.0000 
3.9216e-03 3.9216e-03 3.9216e-03 3.9216e-03 
7.8431e-03 7.8431e-03 7.8431e-03 7.8431e-03 
0.011765 0.011765 0.011765 0.011765 
0.015686 0.015686 0.015686 0.015686 
0.019608 0.019608 0.019608 0.019608 
0.023529 0.023529 0.023529 0.023529 
0.027451 0.027451 0.027451 0.027451 
0.031373 0.031373 0.031373 0.031373 
0.035294 0.035294 0.035294 0.035294 
0.039216 0.039216 0.039216 0.039216 
0.043137 0.043137 0.043137 0.043137 
0.047059 0.047059 0.047059 0.047059 
0.050980 0.050980 0.050980 0.050980 
0.054902 0.054902 0.054902 0.054902 
0.058824 0.058824 0.058824 0.058824 
0.062745 0.062745 0.062745 0.062745 
0.066667 0.066667 0.066667 0.066667 
0.070588 0.070588 0.070588 0.070588 
0.074510 0.074510 0.074510 0.074510 
0.078431 0.078431 0.078431 0.078431 
0.082353 0.082353 0.082353 0.082353 
0.086275 0.086275 0.086275 0.086275 
0.090196 0.090196 0.090196 0.090196 
0.094118 0.094118 0.094118 0.094118 
0.098039 0.098039 0.098039 0.098039 
0.10196 0.10196 0.10196 0.10196 
0.10588 0.10588 0.10588 0.10588 
0.10980 0.10980 0.10980 0.10980 
0.11373 0.11373 0.11373 0.11373 
0.11765 0.11765 0.11765 0.11765 
0.12157 0.12157 0.12157 0.12157 
0.12549 0.12549 0.12549 0.12549 
0.12941 0.12941 0.12941 0.12941 
0.13333 0.13333 0.13333 0.13333 
0.13725 0.13725 0.13725 0.13725 
0.14118 0.14118 0.14118 0.14118 
0.14510 0.14510 0.14510 0.14510 
0.14902 0.14902 0.14902 0.14902 
0.15294 0.15294 0.15294 0.15294 
0.15686 0.15686 0.15686 0.15686 
0.16078 0.16078 0.16078 0.16078 
0.16471 0.16471 0.16471 0.16471 
0.16863 0.16863 0.16863 0.16863 
0.17255 0.17255 0.17255 0.17255 
0.17647 0.17647 0.17647 0.17647 
0.18039 0.18039 0.18039 0.18039 
0.18431 0.18431 0.18431 0.18431 
0.18824 0.18824 0.18824 0.18824 
0.19216 0.19216 0.19216 0.19216 
0.19608 0.19608 0.19608 0.19608 
0.20000 0.20000 0.20000 0.20000 
0.20392 0.20392 0.20392 0.20392 
0.20784 0.20784 0.20784 0.20784 
0.21176 0.21176 0.21176 0.21176 
0.21569 0.21569 0.21569 0.21569 
0.21961 0.21961 0.21961 0.21961 
0.22353 0.22353 0.22353 0.22353 
0.22745 0.22745 0.22745 0.22745 
0.23137 0.23137 0.23137 0.23137 
0.23529 0.23529 0.23529 0.23529 
0.23922 0.23922 0.23922 0.23922 
0.24314 0.24314 0.24314 0.24314 
0.24706 0.24706 0.24706 0.24706 
0.25098 0.25098 0.25098 0.25098 
0.25490 0.25490 0.25490 0.25490 
0.25882 0.25882 0.25882 0.25882 
0.26275 0.26275 0.26275 0.26275 
0.26667 0.26667 0.26667 0.26667 
0.27059 0.27059 0.27059 0.27059 
0.27451 0.27451 0.27451 0.27451 
0.27843 0.27843 0.27843 0.27843 
0.28235 0.28235 0.28235 0.28235 
0.28627 0.28627 0.28627 0.28627 
0.29020 0.29020 0.29020 0.29020 
0.29412 0.29412 0.29412 0.29412 
0.29804 0.29804 0.29804 0.29804 
0.30196 0.30196 0.30196 0.30196 
0.30588 0.30588 0.30588 0.30588 
0.30980 0.30980 0.30980 0.30980 
0.31373 0.31373 0.31373 0.31373 
0.31765 0.31765 0.31765 0.31765 
0.32157 0.32157 0.32157 0.32157 
0.32549 0.32549 0.32549 0.32549 
0.32941 0.32941 0.32941 0.32941 
0.33333 0.33333 0.33333 0.33333 
0.33725 0.33725 0.33725 0.33725 
0.34118 0.34118 0.34118 0.34118 
0.34510 0.34510 0.34510 0.34510 
0.34902 0.34902 0.34902 0.34902 
0.35294 0.35294 0.35294 0.35294 
0.35686 0.35686 0.35686 0.35686 
0.36078 0.36078 0.36078 0.36078 
0.36471 0.36471 0.36471 0.36471 
0.36863 0.36863 0.36863 0.36863 
0.37255 0.37255 0.37255 0.37255 
0.37647 0.37647 0.37647 0.37647 
0.38039 0.38039 0.38039 0.38039 
0.38431 0.38431 0.38431 0.38431 
0.38824 0.38824 0.38824 0.38824 
0.39216 0.39216 0.39216 0.39216 
0.39608 0.39608 0.39608 0.39608 
0.40000 0.40000 0.40000 0.40000 
0.40392 0.40392 0.40392 0.40392 
0.40784 0.40784 0.40784 0.40784 
0.41176 0.41176 0.41176 0.41176 
0.41569 0.41569 0.41569 0.41569 
0.41961 0.41961 0.41961 0.41961 
0.42353 0.42353 0.42353 0.42353 
0.42745 0.42745 0.42745 0.42745 
0.43137 0.43137 0.43137 0.43137 
0.43529 0.43529 0.43529 0.43529 
0.43922 0.43922 0.43922 0.43922 
0.44314 0.44314 0.44314 0.44314 
0.44706 0.44706 0.44706 0.44706 
0.45098 0.45098 0.45098 0.45098 
0.45490 0.45490 0.45490 0.45490 
0.45882 0.45882 0.45882 0.45882 
0.46275 0.46275 0.46275 0.46275 
0.46667 0.46667 0.46667 0.46667 
0.47059 0.47059 0.47059 0.47059 
0.47451 0.47451 0.47451 0.47451 
0.47843 0.47843 0.47843 0.47843 
0.48235 0.48235 0.48235 0.48235 
0.48627 0.48627 0.48627 0.48627 
0.49020 0.49020 0.49020 0.49020 
0.49412 0.49412 0.49412 0.49412 
0.49804 0.49804 0.49804 0.49804 
0.50196 0.50196 0.50196 0.50196 
0.50588 0.50588 0.50588 0.50588 
0.50980 0.50980 0.50980 0.50980 
0.51373 0.51373 0.51373 0.51373 
0.51765 0.51765 0.51765 0.51765 
0.52157 0.52157 0.52157 0.52157 
0.52549 0.52549 0.52549 0.52549 
0.52941 0.52941 0.52941 0.52941 
0.53333 0.53333 0.53333 0.53333 
0.53725 0.53725 0.53725 0.53725 
0.54118 0.54118 0.54118 0.54118 
0.54510 0.54510 0.54510 0.54510 
0.54902 0.54902 0.54902 0.54902 
0.55294 0.55294 0.55294 0.55294 
0.55686 0.55686 0.55686 0.55686 
0.56078 0.56078 0.56078 0.56078 
0.56471 0.56471 0.56471 0.56471 
0.56863 0.56863 0.56863 0.56863 
0.57255 0.57255 0.57255 0.57255 
0.57647 0.57647 0.57647 0.57647 
0.58039 0.58039 0.58039 0.58039 
0.58431 0.58431 0.58431 0.58431 
0.58824 0.58824 0.58824 0.58824 
0.59216 0.59216 0.59216 0.59216 
0.59608 0.59608 0.59608 0.59608 
0.60000 0.60000 0.60000 0.60000 
0.60392 0.60392 0.60392 0.60392 
0.60784 0.60784 0.60784 0.60784 
0.61176 0.61176 0.61176 0.61176 
0.61569 0.61569 0.61569 0.61569 
0.61961 0.61961 0.61961 0.61961 
0.62353 0.62353 0.62353 0.62353 
0.62745 0.62745 0.62745 0.62745 
0.63137 0.63137 0.63137 0.63137 
0.63529 0.63529 0.63529 0.63529 
0.63922 0.63922 0.63922 0.63922 
0.64314 0.64314 0.64314 0.64314 
0.64706 0.64706 0.64706 0.64706 
0.65098 0.65098 0.65098 0.65098 
0.65490 0.65490 0.65490 0.65490 
0.65882 0.65882 0.65882 0.65882 
0.66275 0.66275 0.66275 0.66275 
0.66667 0.66667 0.66667 0.66667 
0.67059 0.67059 0.67059 0.67059 
0.67451 0.67451 0.67451 0.67451 
0.67843 0.67843 0.67843 0.67843 
0.68235 0.68235 0.68235 0.68235 
0.68627 0.68627 0.68627 0.68627 
0.69020 0.69020 0.69020 0.69020 
0.69412 0.69412 0.69412 0.69412 
0.69804 0.69804 0.69804 0.69804 
0.70196 0.70196 0.70196 0.70196 
0.70588 0.70588 0.70588 0.70588 
0.70980 0.70980 0.70980 0.70980 
0.71373 0.71373 0.71373 0.71373 
0.71765 0.71765 0.71765 0.71765 
0.72157 0.72157 0.72157 0.72157 
0.72549 0.72549 0.72549 0.72549 
0.72941 0.72941 0.72941 0.72941 
0.73333 0.73333 0.73333 0.73333 
0.73725 0.73725 0.73725 0.73725 
0.74118 0.74118 0.74118 0.74118 
0.74510 0.74510 0.74510 0.74510 
0.74902 0.74902 0.74902 0.74902 
0.75294 0.75294 0.75294 0.75294 
0.75686 0.75686 0.75686 0.75686 
0.76078 0.76078 0.76078 0.76078 
0.76471 0.76471 0.76471 0.76471 
0.76863 0.76863 0.76863 0.76863 
0.77255 0.77255 0.77255 0.77255 
0.77647 0.77647 0.77647 0.77647 
0.78039 0.78039 0.78039 0.78039 
0.78431 0.78431 0.78431 0.78431 
0.78824 0.78824 0.78824 0.78824 
0.79216 0.79216 0.79216 0.79216 
0.79608 0.79608 0.79608 0.79608 
0.80000 0.80000 0.80000 0.80000 
0.80392 0.80392 0.80392 0.80392 
0.80784 0.80784 0.80784 0.80784 
0.81176 0.81176 0.81176 0.81176 
0.81569 0.81569 0.81569 0.81569 
0.81961 0.81961 0.81961 0.81961 
0.82353 0.82353 0.82353 0.82353 
0.82745 0.82745 0.82745 0.82745 
0.83137 0.83137 0.83137 0.83137 
0.83529 0.83529 0.83529 0.83529 
0.83922 0.83922 0.83922 0.83922 
0.84314 0.84314 0.84314 0.84314 
0.84706 0.84706 0.84706 0.84706 
0.85098 0.85098 0.85098 0.85098 
0.85490 0.85490 0.85490 0.85490 
0.85882 0.85882 0.85882 0.85882 
0.86275 0.86275 0.86275 0.86275 
0.86667 0.86667 0.86667 0.86667 
0.87059 0.87059 0.87059 0.87059 
0.87451 0.87451 0.87451 0.87451 
0.87843 0.87843 0.87843 0.87843 
0.88235 0.88235 0.88235 0.88235 
0.88627 0.88627 0.88627 0.88627 
0.89020 0.89020 0.89020 0.89020 
0.89412 0.89412 0.89412 0.89412 
0.89804 0.89804 0.89804 0.89804 
0.90196 0.90196 0.90196 0.90196 
0.90588 0.90588 0.90588 0.90588 
0.90980 0.90980 0.90980 0.90980 
0.91373 0.91373 0.91373 0.91373 
0.91765 0.91765 0.91765 0.91765 
0.92157 0.92157 0.92157 0.92157 
0.92549 0.92549 0.92549 0.92549 
0.92941 0.92941 0.92941 0.92941 
0.93333 0.93333 0.93333 0.93333 
0.93725 0.93725 0.93725 0.93725 
0.94118 0.94118 0.94118 0.94118 
0.94510 0.94510 0.94510 0.94510 
0.94902 0.94902 0.94902 0.94902 
0.95294 0.95294 0.95294 0.95294 
0.95686 0.95686 0.95686 0.95686 
0.96078 0.96078 0.96078 0.96078 
0.96471 0.96471 0.96471 0.96471 
0.96863 0.96863 0.96863 0.96863 
0.97255 0.97255 0.97255 0.97255 
0.97647 0.97647 0.97647 0.97647 
0.98039 0.98039 0.98039 0.98039 
0.98431 0.98431 0.98431 0.98431 
0.98824 0.98824 0.98824 0.98824 
0.99216 0.99216 0.99216 0.99216 
0.99608 0.99608 0.99608 0.99608 
1.0000 1.0000 1.0000 1.0000 
END_DATA
