CTI3
DESCRIPTOR	"Calibration Target chart information 3"
ORIGINATOR	"ColorHug Factory"
DEVICE_CLASS	"DISPLAY"
COLOR_REP	"RGB_XYZ"
TARGET_INSTRUMENT	"ColorHug"
INSTRUMENT_TYPE_SPECTRAL	"NO"
LUMINANCE_XYZ_CDM2	"49.919128 36.575317 42.182922"
NORMALIZED_TO_Y_100	"YES"
NUMBER_OF_FIELDS	7
NUMBER_OF_SETS	836
BEGIN_DATA_FORMAT
 SAMPLE_ID	RGB_R	RGB_G	RGB_B	XYZ_X	XYZ_Y	XYZ_Z
END_DATA_FORMAT
BEGIN_DATA
 1	100	100	100	136.5	100	115.25
 2	100	100	100	136	100	115.125
 3	100	100	100	136.75	99.75	115.125
 4	100	100	100	136	99.75	115.25
 5	33.33	32.622	30.968	11.625	8.375	9.125
 6	100	0	100	86.75	28	82.5
 7	100	100	0	134.875	81.125	46
 8	0	100	100	47.625	90.875	101.875
 9	0	100	0	46.125	71.875	32.625
 10	0	0	100	2.375	19	69.75
 11	100	0	0	85	9	12.875
 12	0	0	0	0.25	0.25	0.25
 13	0	52.455	100	12.625	35.75	77.25
 14	100	0	50.3	85.375	13	27.375
 15	100	54.739	100	99.375	46.125	91
 16	100	52.128	0	96	25.125	20.375
 17	0	0	46.181	0.5	3.375	11.75
 18	0	51.141	0	10.25	15.75	7.375
 19	0	100	51.348	46.5	76	47.625
 20	100	100	52.037	134.125	85.625	61.75
 21	49.216	0	0	17.125	2	2.75
 22	56.159	100	0	69.125	74.125	36
 23	49.226	100	100	65.125	93.125	104.875
 24	44.487	0	100	15.75	20.625	71.875
 25	100	44.498	52.029	93.25	25.125	33.875
 26	48.926	48.544	100	28.125	35	79
 27	51.368	100	47.25	65.375	77.5	48.125
 28	49.893	0	49.033	18.125	5.75	16.5
 29	53.109	51.372	0	30.5	18	10.375
 30	0	58.587	53.943	14.375	25.875	26.375
 31	100	28.065	100	90.125	32.75	84.875
 32	0	0	72.874	1.25	8.875	32.25
 33	0	26.758	100	4.5	23.25	71
 34	0	25.426	0	2.5	3.75	1.875
 35	72.508	0	100	41.875	23.375	75.5
 36	100	27.395	0	87.625	13.25	14.875
 37	74.47	100	100	91.75	95.75	108.75
 38	100	0	25.728	85.125	10.125	16.5
 39	73.862	0	0	41.625	4.5	6.5
 40	100	100	25.402	133.375	81.75	49.375
 41	0	75.751	100	26.625	56.625	86.875
 42	0	75.172	0	24	36.5	16.75
 43	0	100	25.864	46.375	73	36
 44	100	0	74.801	86.125	18.625	47.625
 45	0	100	75.421	47.25	81.625	68.5
 46	24.577	0	0	4.125	0.625	0.875
 47	26.321	100	0	50.875	72.5	33.25
 48	100	75.835	0	111.625	46.375	30
 49	100	100	77.061	135.5	91.25	83.25
 50	71.263	100	0	85.25	76.125	38.625
 51	0	0	15.614	0.25	0.5	1.5
 52	0	30.049	70.936	4.25	13.5	32.75
 53	100	77.691	100	114.625	68.375	100.625
 54	24.486	100	100	51.875	91.625	102.875
 55	100	62.784	31.909	102.125	35.125	29.625
 56	29.552	0	100	7.875	19.625	70.625
 57	32.98	70.921	100	30.25	52	85.25
 58	0	27.681	40.241	3.25	6.875	10.875
 59	67.901	71.021	100	57.75	55.375	89.625
 60	28.154	100	67.829	51.875	80	61.25
 61	71.637	100	70.001	86.75	84.625	68.75
 62	58.822	58.763	53.586	39	28.25	29.875
 63	33.466	30.48	0	11	6.125	3.75
 64	100	73.795	71.277	110.375	52.5	59.75
 65	68.394	29.692	0	38.25	8.75	7.625
 66	70.399	0	29.039	37.375	5.375	10.25
 67	28.078	0	26.956	5.5	1.75	4.875
 68	28.532	72.339	0	27.375	34	16.125
 69	100	30.941	26.496	88.75	15.5	19.125
 70	34.597	0	73.611	9	10	34.375
 71	71.573	0	72.408	39.375	13	37.875
 72	0	71.029	29.412	21.375	33.5	19.5
 73	68.386	75.008	0	59.25	40.25	22
 74	68.088	27.309	100	39.375	27.125	77
 75	100	26.457	73.749	88.125	22.375	48.625
 76	74.344	100	27.392	89.625	78	43.25
 77	27.558	100	28.197	51.5	73.75	37.5
 78	31.196	27.465	100	11.25	24.125	73
 79	0	75.521	72.824	25.25	46.25	49.375
 80	0	50.93	25.553	10.25	16.5	10.75
 81	32.06	33.584	64.033	11.75	14	28.5
 82	81.666	55.38	0	64.875	24.25	16.5
 83	68.257	32.751	58.286	39.5	15.375	28
 84	0	55.248	81.585	13.25	30.375	51
 85	73.781	52.099	100	54.125	40	83.375
 86	100	50.537	82.952	96.375	36.5	64.375
 87	23.55	0	50.439	4.375	4.375	15.125
 88	31.335	62.746	31.114	22.875	26.875	17.5
 89	100	18.31	49.418	86.75	14.875	27.75
 90	26.498	48.404	0	13.875	14.5	7.25
 91	47.91	100	85.744	63.625	87	83.125
 92	71.829	47.313	31.811	48.375	19.125	17.625
 93	31.304	64.132	69.316	24.25	34.5	41.875
 94	80.403	0	54.321	51	10.25	24.875
 95	18.455	50.036	100	14	34.5	77.125
 96	50.653	100	16.345	64.25	74.5	36.875
 97	80.121	100	52.261	98.375	81.625	56.375
 98	0	22.54	19.289	2.125	3.625	3.625
 99	100	75.273	46.886	110.375	48.75	42
 100	0	78.618	56.625	27.125	45.875	37.125
 101	51.137	80.627	100	48.375	64	92.25
 102	48.446	0	17.864	16.625	2.375	4.5
 103	100	50.023	21.211	94.625	24.625	22.25
 104	50.115	20.118	0	19.25	4.375	4
 105	58.099	72.426	33.158	46.5	37.875	25
 106	19.364	100	50.197	48.625	75.25	47.125
 107	50.683	19.177	100	21.625	23.125	73.625
 108	53.37	0	81.576	21.75	14	46
 109	47.768	76.245	0	40.375	39.375	19.625
 110	0	18.927	55.503	1.875	7	18.625
 111	0	13.277	0	0.875	1.125	0.75
 112	72.862	72.473	75.625	62.75	47.5	57
 113	100	13.904	0	85.625	10.125	13.375
 114	86.349	0	100	61.75	25.5	78.75
 115	100	41.941	100	93.625	38.25	86.75
 116	100	81.785	16.464	116.25	53.625	34.875
 117	0	44.063	52.596	8	15.875	21.125
 118	0	0	58.917	0.75	5.5	20
 119	59.25	24.551	29.789	28	7.5	10.25
 120	82.73	82.874	100	85.875	70.75	98.75
 121	80.039	0	12.618	49.875	5.75	8.625
 122	60.957	47.729	77.817	36.875	27	48.5
 123	100	0	38.618	84.875	11.25	21.125
 124	0	40.09	100	8	28.625	74
 125	0	15.283	82.322	2.125	13.25	43.75
 126	17.592	81.726	100	33	63.875	90.5
 127	100	14.13	100	87	29.5	83.125
 128	15.261	100	82.059	48.625	83.75	76.375
 129	47.77	79.418	60.389	43.375	49.375	42.875
 130	18.768	16.429	0	3.5	2	1.375
 131	55.634	100	65.763	68.375	81.125	62.25
 132	100	100	38.541	134.5	83.375	53.875
 133	17.421	0	83.497	3.375	12.5	45
 134	17.237	16.758	100	5	21	70.875
 135	0	15.067	30.039	1.125	2.75	5.5
 136	0	0	86.505	1.75	13.25	48.625
 137	75.736	72.799	50.02	67.5	42.875	36.5
 138	100	83.323	85.529	118	68.75	82.125
 139	100	100	64.894	135.375	87.75	71.5
 140	81.98	84.914	0	85.5	53.875	30.25
 141	0	63.757	15.49	16.625	25.625	13
 142	49.514	66.135	100	37.125	48.5	84.875
 143	100	0	61.862	85.625	15.25	35.375
 144	24.308	45.41	49.831	12.25	16.625	20.375
 145	15.963	0	17.047	1.875	0.75	2.125
 146	87.497	100	100	112	97.625	111.75
 147	52.099	25.003	75.752	22.625	15.5	40.625
 148	14.909	81.162	0	29.875	43.375	20.125
 149	0	34.792	14.626	4.625	7.375	4.625
 150	48.39	45.075	22.552	24.375	14.5	10.875
 151	83.545	65.965	100	75.25	52.5	90.625
 152	16.226	62.345	0	17.5	24	11.25
 153	63.222	0	14.914	29.5	3.625	6
 154	80.449	13.446	0	51	6.625	8.25
 155	83.917	41.562	0	62.25	15.875	13
 156	100	60.448	46.3	101	35	35.5
 157	15.584	0	34.795	2	2.125	6.875
 158	17.144	65.121	100	21.375	46.25	82.125
 159	83.602	55.334	62.667	68.625	31	40.125
 160	0	82.19	14.22	29.375	45.125	21.625
 161	25.132	74.856	50.616	28.25	40.5	31.75
 162	0	13.769	100	2.625	20.25	70.375
 163	87.181	0	0	61	6.5	9.25
 164	0	100	39.19	46	74.25	40.75
 165	78.047	65.914	19.865	65.375	32.875	21.75
 166	100	63.961	15.865	102.75	34.875	26.125
 167	100	45.955	36.032	93.625	23.5	25.625
 168	15.926	100	16.89	47.875	72.5	34.25
 169	41.459	100	0	57.625	73.125	34.25
 170	48.707	37.288	48.139	22.375	13.625	19.375
 171	83.381	100	13.285	102.25	78.25	42.125
 172	78.129	25.303	75.621	50.375	18.5	44.375
 173	12.396	0	0	1.25	0.25	0.5
 174	37.607	48.336	83.346	19.875	27.375	52.5
 175	35.588	15.356	0	9.375	2.5	2.125
 176	61.245	100	100	75.625	93.5	106
 177	100	67.29	87.195	105.75	50.875	76
 178	0	0	30.615	0.375	1.5	5.125
 179	35.187	81.789	83.323	38.5	57.625	66.625
 180	39.525	80.194	22.879	38.125	44.375	23.75
 181	50.634	34.593	0	22.75	8.875	6.125
 182	14.175	100	63.146	47.875	78.375	56.5
 183	83.493	17.728	34.574	56	9.625	15.75
 184	23.463	22.014	79.943	6.75	14.25	42.125
 185	18.066	31.847	0	6.125	6.125	3.25
 186	87.201	100	81.361	109.875	90	84.625
 187	0	100	87.95	47.25	85.875	83.75
 188	34.476	17.888	46.22	9.5	6.125	14.125
 189	18.277	0	67.39	3.125	7.75	27.625
 190	100	87.972	0	122.125	62.25	37.375
 191	82.925	34.85	100	61	32	81.25
 192	0	88.016	100	36.375	72	93.75
 193	36.104	85.655	100	42.625	69.625	93.375
 194	60.981	0	0	27.125	3	4.25
 195	51.466	61.826	78.106	35.375	36.375	52.5
 196	78.427	31.983	22.175	51	11.75	12.625
 197	66.017	44.321	0	39.875	15.125	10.375
 198	83.941	0	84.177	57.375	18.5	54.5
 199	20.158	46.612	23.269	11.25	14.125	9.375
 200	0	100	62.618	46.875	78.375	56
 201	33.832	0	13.933	7.75	1.25	2.5
 202	100	17.286	16.322	85.875	11.125	15.125
 203	0	42.204	83.926	8.125	23.125	50.375
 204	0	87.774	0	33.75	51.875	23.625
 205	64.988	0	59.017	31.625	9	25.125
 206	14.677	0	100	3.5	19.25	69.75
 207	88.934	82.673	35.021	94	53.75	37.25
 208	0	63.778	100	18.375	44.75	81.125
 209	83.429	17.674	100	57.875	26.75	78.75
 210	30.899	100	85.668	53.125	84.75	81.125
 211	83.68	0	41.016	55.375	8.5	17.75
 212	100	63.515	0	101.75	33.75	24.25
 213	85.074	69.987	0	78.125	37.125	22.875
 214	20.801	45.524	69.018	11.75	20.625	34.75
 215	21.382	82.482	73.017	33.5	54.75	53.75
 216	100	15.128	64.249	86.125	17	37.75
 217	36.522	0	58.427	9.625	6.375	21
 218	22.466	81.296	33.007	32	45.625	26.375
 219	62.531	87.152	0	61.75	54.25	27.75
 220	84.12	85.397	67.886	89.375	62.5	58.875
 221	18.87	27.336	45.389	5.625	7.75	13.875
 222	66.439	100	14.444	79.125	75.875	38.625
 223	41.636	22.147	19.003	13.875	4.75	5.25
 224	61.271	100	81.94	74.875	86.625	79.625
 225	86.013	100	0	107	78.25	41.625
 226	37.57	0	0	9.375	1.125	1.625
 227	100	16.132	84.102	86.125	23.125	59.375
 228	0	100	13.619	45.875	72	33.5
 229	38.905	100	56.471	56.75	78.25	52.5
 230	100	15.382	34.563	85.375	12.25	20
 231	36.656	14.908	100	11.875	21.375	71.375
 232	0	62.593	66.608	16.5	31.625	37.625
 233	66.347	12.528	100	35.25	23.5	75.375
 234	100	43.375	69.233	92.375	28	47.25
 235	100	56.36	61.236	98.375	34.5	44
 236	0	86.194	44.955	32.75	53	34.25
 237	64.527	87.262	100	66.25	74.25	98
 238	34.411	0	42.471	8.25	3.75	11.375
 239	80.23	59.707	85.12	66	40.5	65
 240	20.625	19.056	14.791	4.375	2.875	2.875
 241	15.341	34.221	100	8	26.125	73.125
 242	36.777	0	87.905	10.5	14.875	52.5
 243	34.598	56.247	100	22.75	39.375	79.75
 244	20.86	67.629	17.418	22	29.75	15.375
 245	44.958	60.843	18.054	29	25	14.5
 246	37.421	60.193	0	24.25	23.25	11.75
 247	84.011	33.849	42.612	60.625	15.5	21.75
 248	17.241	60.339	37.743	16.875	24.75	18.5
 249	50.65	17.261	53.278	20	8.25	20
 250	45.505	48.926	65.152	24.625	22.875	34.25
 251	44.567	84.081	39.649	44.5	50.875	32.375
 252	100	86.339	72.054	121	68.625	68.125
 253	68.14	61.135	0	49.75	26.5	15.75
 254	17.93	66.986	81.403	21.875	40.125	55.75
 255	39.242	60.215	48.926	25.75	27.375	25.5
 256	20.099	18.77	62.967	4.875	8.875	24.875
 257	34.553	100	14.582	54	72.75	35
 258	87.345	0	66.694	61.625	14	36.125
 259	0	43.714	39.842	7.625	13.75	14
 260	100	37.705	13.955	89.75	17.625	17.75
 261	31.265	86.993	0	39.375	51.375	24.25
 262	51.402	82.661	81.338	49.375	59.25	66
 263	100	100	12.984	134.25	81	46.625
 264	0	37.859	0	5.5	8.375	4
 265	62.092	58.215	100	43.625	43	83.375
 266	86.186	100	64.1	107.25	85	66.375
 267	100	35.251	85.898	90.25	29.375	64.5
 268	63.182	89.992	41.974	65.5	61.375	39.625
 269	13.504	100	0	47.25	72	32.625
 270	100	0	13.228	84.625	9.25	13.875
 271	63.881	40.826	100	38.25	32.25	78.875
 272	69.387	84.838	20.792	67.75	52.5	29.75
 273	0	70.279	45.136	21	34.5	25.875
 274	79.094	64.754	40.908	66	33.875	28.625
 275	62.385	54.099	17.396	39.875	21	14.125
 276	64.408	14.621	0	31.25	4.625	5.375
 277	70.028	15.606	44.651	37.625	8.5	17.375
 278	0	63.544	0	16.375	25.125	11.5
 279	83.475	47.274	20.502	63.375	19.75	16.625
 280	55.866	0	32.671	22.5	4.125	9.25
 281	58.007	0	100	26.125	21.625	73.625
 282	100	0	87.698	85.375	22.75	62.875
 283	0	13.792	67.215	1.625	8.625	27.625
 284	84.123	17.001	58.549	57.375	13.125	29.375
 285	59.579	32.873	15.966	29.5	9.375	8.25
 286	10.41	32.998	28.659	5.125	7.625	7.5
 287	17.231	40.031	85.65	9.5	22.875	52.625
 288	37.568	41.561	10.108	16	11.25	6.875
 289	0	69.015	85.092	21	43.125	60.625
 290	14.442	100	36.187	47.5	73.625	39.875
 291	100	40.549	0	91.125	18.75	17.25
 292	82.143	45.435	78.429	61.5	28.5	52.125
 293	52.674	0	67.3	20.75	9.625	30.25
 294	0	87.868	66.793	34.875	60.125	50.875
 295	86.53	100	40.524	108.125	81.125	50.875
 296	71.777	85.586	67.232	72.5	61.5	55.875
 297	43.216	100	31.671	59	74.875	39.875
 298	39.245	32.908	85.845	16	20.5	52.625
 299	0	45.662	67.543	8.875	20.125	33.375
 300	12.161	100	100	48.875	91.375	102.5
 301	67.049	0	85.516	34.5	16.75	52.75
 302	100	89.041	100	124.625	82.875	107.5
 303	20.246	60.698	56.526	18	28	29.5
 304	52.177	55.457	40.416	31.875	23.375	20.75
 305	72.617	87.018	83.932	74.625	68.125	75.5
 306	40.512	16.723	66.475	13.125	10.25	29.125
 307	68.507	49.232	50.605	44.75	22.375	26.75
 308	65.622	100	54.525	79.25	80.5	54.75
 309	54.115	37.24	66.394	26.875	17.625	33.5
 310	100	76.138	31.267	111.375	48.625	35.5
 311	54.728	65.623	0	39	29.25	15.625
 312	63.126	12.526	64.37	30.25	11	29.625
 313	72.827	18.08	23.704	41.125	7.125	10.125
 314	23.268	15.278	34.947	4.875	3.75	8
 315	87.648	68.954	59.645	81.625	42.125	44.375
 316	0	85.595	85.198	33.5	62.375	69.75
 317	35.798	84.371	69.21	40.25	57.125	52.25
 318	36.062	47.494	35.919	17.75	16.5	14.625
 319	86.083	36.277	59.152	64.625	19.625	32.75
 320	58.21	100	30.361	70.375	75.75	41.25
 321	46.745	14.614	32.317	16.375	4.625	8.625
 322	81.573	73.869	86.954	76.75	54.125	73.125
 323	85.991	49.387	48.206	69.125	24.375	28.625
 324	28.062	87.906	19.654	39.25	53.875	26.75
 325	68.992	17.993	85.124	37.875	18.625	53.125
 326	100	66.147	100	104.5	55.375	94.625
 327	33.358	64.806	84.517	26	39.875	59.375
 328	41.351	17.736	80.522	14	14.5	43.75
 329	100	100	88.719	134.5	94.75	97.875
 330	66.336	0	44.32	32.75	6.625	16
 331	64.85	67.09	12.293	49.5	31.75	18.625
 332	15.262	31.268	63.277	6	12.25	26.5
 333	15.008	43.663	37.3	9.125	13.625	13.125
 334	0	57.895	38.078	13.5	22.625	17.25
 335	66.599	58.458	67.871	47	32.25	42.5
 336	59.191	18.651	15.215	26.5	5.25	6.25
 337	66.781	31.14	84.629	37.875	21.875	54.125
 338	88.033	85.158	52.14	95.25	60	47.5
 339	36.882	100	100	56.5	91.625	103.625
 340	26.102	33.094	17.006	8.625	7.25	5.375
 341	56.309	36.861	35.862	27.875	12.125	14.125
 342	45.839	65.587	67.033	32.75	36	41.5
 343	83.709	81.172	16.406	83.875	49.625	29.625
 344	0	48.132	13.005	9	14.125	7.5
 345	87.176	50.021	100	72.625	40.75	86.125
 346	51.219	84.244	13.73	49	49.75	25.5
 347	60.606	71.415	48.406	48.375	39.125	32.375
 348	0	11.359	12.718	0.75	1.25	1.625
 349	86.429	49.705	33.145	69.25	22.75	21.75
 350	34.056	40.958	100	16	30	75.25
 351	100	30.557	59.628	88.5	20.25	36.25
 352	88.497	26.902	13.449	65.375	11.125	12.625
 353	14.167	51.98	88.218	13.375	30.5	58.75
 354	13.784	12.983	49.37	2.625	5.125	14.5
 355	15.018	88.441	48.062	36.375	57.25	37.625
 356	87.79	25.769	89.215	65.25	24.875	63.875
 357	0	33.206	55.865	4.625	11.25	21
 358	74.324	76.029	35.536	66.875	43.75	30.375
 359	65.863	57.223	42.324	45	26	23.875
 360	30.893	54.646	13.136	18.25	19.125	10.375
 361	0	34.36	28.321	4.625	8	7.5
 362	15.443	77.087	85.116	28.375	52	65.5
 363	63.381	68.947	68.521	49.875	41.125	46.625
 364	69.733	27.566	42.917	39.125	11.125	17.875
 365	32.754	100	42.76	53.375	75.25	43.875
 366	47.096	29.481	34.829	19.125	8.5	11.25
 367	8.5451	71.948	62.695	22.875	39.375	38.5
 368	0	86.048	29.3	32.5	51	27.375
 369	53.697	51.572	85.367	32.125	31.25	57.875
 370	17.608	56.69	12.515	14.875	20.125	10.25
 371	90.638	14.414	49.227	67.75	12.125	24.5
 372	63.248	63.64	89.55	47.25	43.125	69
 373	100	85.976	58.455	119.75	64.875	55.875
 374	9.8311	28.027	7.5567	3.875	4.75	2.875
 375	89.831	64.313	69.506	83.25	40.75	50.875
 376	31.754	12.995	25.543	7.5	2.875	5.25
 377	75.914	45.966	64.957	52.625	24.25	37.625
 378	7.5735	50.695	58.941	11.125	21.25	27.375
 379	100	69.835	58.912	105.5	45.625	47.625
 380	32.211	34.376	48.339	11.75	11.125	17.375
 381	13.901	12.159	73.555	3	10.25	33.875
 382	87.071	9.028	77.653	61.625	17.5	47.625
 383	23.272	85.409	84.29	36.5	62.125	68.375
 384	93.289	39.48	26.145	76.875	17.625	18.5
 385	65.769	59.63	30.967	46	26.75	19.875
 386	100	32.265	41.803	88.25	17.625	25.25
 387	86.568	85.281	86.961	93.375	68.75	80.75
 388	52.577	86.83	30.016	52.625	54.5	30.875
 389	47.921	40.199	76.902	23.25	21.5	44.25
 390	22.36	86.619	61.58	36.625	57	46
 391	52.232	33.601	88.787	25.125	22.875	58.125
 392	0	28.523	86.267	4.375	17.75	50.5
 393	43.497	67.879	39.551	32.25	33	23.875
 394	39.877	45.261	0	18.75	13.25	7.25
 395	86.94	12.43	24.699	60.5	8.375	12.875
 396	28.363	55.339	90.398	19.125	34.25	63.75
 397	39.018	70.534	57.879	31.5	38	35.375
 398	12.833	28.519	78.828	5.25	15.5	41.625
 399	68.35	31.815	69.975	39.5	17.875	38
 400	56.52	26.226	41.626	26	9	15
 401	12.938	46.218	0	9.375	12.75	6.125
 402	8.6938	60.179	26.117	15.375	23.375	13.875
 403	51.995	89.429	96.608	56	74.75	92
 404	46.905	47.746	48.909	24.625	19.125	22.25
 405	14.352	81.814	19.479	30.375	45	22.5
 406	71.482	38.117	12.273	44	12.875	10.75
 407	86.616	60.785	10.012	74.75	29.5	20.25
 408	71.811	88.979	52.186	74.875	62.375	46.125
 409	43.213	100	72.083	59.75	82.125	66.75
 410	73.92	23.444	8.2853	43.5	7.75	8.25
 411	40.629	85.534	53.423	43.375	55.375	40.625
 412	38.955	52.128	22.885	21.125	18.125	12
 413	46.48	12.229	8.6707	15.75	2.875	3.5
 414	40.855	33.301	22.309	15.75	8.375	7.5
 415	76.365	66.787	61.06	63.5	39.125	41.625
 416	7.5076	12.025	20.59	1.375	1.75	3
 417	85.93	27.031	0	61.75	10.375	10.75
 418	100	87.757	44.06	121.25	64.375	48
 419	41.543	25.624	54.896	14.625	9.75	20.875
 420	59.533	76.669	91.789	51.875	56.5	78
 421	58.226	12.079	28.862	25.125	4.875	8.625
 422	50.514	8.8602	88.281	19.75	16.5	54.25
 423	41.983	0	31.301	12.375	2.875	7.125
 424	28.024	36.455	77.877	11.125	18.625	42.5
 425	12.718	41.027	11.129	7.625	10.125	5.625
 426	26.194	75.573	88.088	29.875	51.5	68.625
 427	28.936	71.474	37.671	27	35.375	23.625
 428	90.497	74.77	26.512	90.125	43.625	30.25
 429	17.514	75.984	41.507	26.75	40.125	26.75
 430	16.621	64.069	68.891	19.5	33.75	40.75
 431	12.42	21.661	36.669	3.25	5	8.75
 432	52.915	46.814	10.465	28.125	15.375	9.75
 433	56.979	91.194	52.49	60.5	63.875	45.25
 434	25.14	52.299	42.419	15.125	19.625	18.25
 435	25.587	6.8296	13.004	4.75	1.25	2.125
 436	55.018	14.818	41.328	22.75	6.375	13.5
 437	93.397	56.942	87.959	85.25	41.25	70.5
 438	28.374	12.057	85.683	7.375	14.625	48.875
 439	78.265	6.7088	92.468	48.75	21.125	64.5
 440	39.694	71.314	6.3658	31.625	33.25	16.625
 441	73.259	45.059	87.294	49.375	30	61.5
 442	26.381	57.692	76.454	18.875	31	46.375
 443	66.587	33.629	31.299	36.875	11.375	13.25
 444	88.523	74.434	46.718	86	45.625	38.5
 445	76.836	59.92	49.912	59.75	30.875	31.25
 446	33.152	90.418	31.148	43.375	58.125	31.875
 447	55.924	53.388	68.505	34.25	27.625	39.5
 448	77.248	91.798	41.448	83.75	65.75	43.25
 449	26.737	89.225	45.445	39.875	57.875	36.875
 450	87.642	100	25.942	109.75	79.625	45.75
 451	68.631	100	40.532	81.5	78	47.375
 452	14.485	50.449	49.078	11.75	19.375	21
 453	10.654	10.664	89.702	2.875	15.375	53.25
 454	31.962	49.108	62.92	16.875	21.875	31.25
 455	8.6779	22.468	68.278	3.375	10.75	29.75
 456	74.727	90.586	6.3447	79.375	60.625	32.375
 457	0	12.136	44.106	1	4	11.25
 458	43.35	78.123	73.61	39.75	50.375	53.875
 459	10.925	11.786	9.5801	1.625	1.25	1.375
 460	15.591	37.386	50.832	7.375	12.375	18.75
 461	10.685	68.959	9.3113	20.5	30.25	14.5
 462	92.017	72.247	12.692	91.375	41.125	26.75
 463	89.839	77.431	73.4	91.875	55.5	61.75
 464	47.45	74.511	18.753	38.75	38.375	20.75
 465	50.097	90.816	69.461	54.375	66.5	58
 466	82.755	34.052	82.994	59.125	24.625	55.875
 467	46.786	72.919	85.794	38.75	48.75	65.75
 468	9.3304	90.457	73.518	37.75	65.125	59
 469	88.59	61.902	22.128	78.125	31.125	22.875
 470	100	61.262	74.222	100.875	41.875	57.75
 471	86.777	8.8992	8.4672	59.75	7.125	9.875
 472	39.582	85.966	11.798	42.625	51	25.125
 473	85.958	0	24.986	58.5	7.25	12.25
 474	80.299	22.552	47.163	51.625	11.75	21.5
 475	7.218	45.128	76.547	9.375	22.375	42.125
 476	55.989	48.521	58.428	31.875	21.875	29.5
 477	50.728	10.774	73.284	19.625	11.75	36
 478	71.269	10.344	11.008	38.125	5.125	7
 479	91.768	45.194	10.385	76.375	19.5	16.625
 480	7.8976	42.553	25.13	7.625	11.625	8.5
 481	54.269	55.846	25.175	33.375	22.125	15.25
 482	41.937	24.646	5.4249	14.125	4.875	3.875
 483	89.502	33.423	70.991	69.375	21.875	44
 484	75.301	54.745	14.159	54.75	22.875	16
 485	76.653	6.2202	65.75	45.875	12.25	32.75
 486	58.072	77.769	7.4688	49.75	41.75	22
 487	27.429	73.801	76.267	28.75	45.875	53.375
 488	39.961	56.279	74.128	24.25	29.75	44.625
 489	23.43	28.561	70.622	7.5	13.375	33.125
 490	91.285	49.258	68.377	77.125	29.5	45.25
 491	95.591	89.122	11.382	111.875	62.875	37.25
 492	28.451	92.151	76.841	43.625	68.625	64
 493	26.242	26.08	53.808	7.5	9	19.125
 494	15.957	92.746	24.983	40	60.25	30.5
 495	13.563	9.1545	61.533	2.375	6.875	22.625
 496	13.216	24.593	54.939	4	8.375	19.375
 497	91.885	89.769	79.537	106.75	73.25	75.375
 498	100	88.684	29.334	121.75	63.75	42.125
 499	34.09	65.771	20.136	25.5	28.5	15.875
 500	20.961	77.373	9.9329	28.375	39.25	19
 501	48.985	66.059	50.556	34.875	33.25	29.625
 502	92.409	9.0241	90.897	70.75	23	65.75
 503	40.34	11.09	52.408	12	6.375	17.875
 504	41.367	58.198	88.277	26.75	36.125	62.875
 505	72.147	77.604	91.982	66.375	59.375	80.875
 506	12.761	67.714	50.147	20.5	32.75	27.625
 507	76.617	25.882	91.445	49	24	64.5
 508	92.734	34.742	50.285	74.875	18.5	28.625
 509	16.114	24.64	92.845	5.625	19.5	59.625
 510	22.589	72.255	61.762	26	40.25	38.625
 511	79.742	58.911	30.09	63.25	27.75	22.125
 512	75	100	87.265	91.375	90.625	89.75
 513	22.068	58.052	24.509	16.875	21.875	13.25
 514	29.302	20.341	8.3315	7.25	3.25	2.625
 515	75.009	40.707	41.951	49.25	17	20.625
 516	76.599	13.357	74.764	46.625	15.625	42
 517	10.272	88.11	94.612	36.375	69	85.125
 518	34.093	23.728	89.777	11.25	18.625	56.125
 519	29.867	13.694	72.95	7.625	10.875	34.5
 520	64.983	91.01	77.614	68.5	70.75	68.375
 521	66.135	26.77	20.928	34.75	8.25	9.25
 522	36.207	25.309	75.344	12.25	14.375	38.625
 523	78.931	73.018	10.687	71	39.375	23.625
 524	30.391	22.415	20.277	8.125	4.25	4.625
 525	11.242	82.956	64.472	31.25	52.75	45.875
 526	80.459	87.628	28.607	85.125	58.75	35.75
 527	27.707	31.87	88.315	10.125	20.5	54.75
 528	62.06	36.458	46.606	33.125	14	20
 529	29.542	11.104	53.546	6.875	6	17.75
 530	68.762	19.114	33.778	36.5	7.625	12.625
 531	59.637	48.524	31.174	34.875	18.125	15.5
 532	48.298	33.52	100	22.5	27.375	75.25
 533	45.598	28.163	66.475	18	13.25	30.75
 534	29.918	44.928	90.506	15.125	27.375	60.875
 535	78.316	92.636	77.206	86.625	74.75	71.75
 536	91.281	57.367	55.776	81.5	32.375	37.5
 537	21.692	25.08	26.495	5.625	5	6
 538	74.304	63.813	94.636	59.5	46.25	78.375
 539	88.481	29.745	32.468	65.75	13.25	17.375
 540	59.486	41.236	87.042	33.25	26.375	57.75
 541	92.045	78.449	60.137	95.875	53.875	50.25
 542	61.977	24.673	6.6648	30.125	6.5	6.25
 543	40.162	92.786	90.522	50.25	74.625	82.625
 544	36.748	77.066	93.097	35.75	55.375	77.5
 545	20.161	69.446	29.15	22.75	32.125	19
 546	47.187	88.771	0	49.625	54.875	26.75
 547	44.188	43.219	90.474	22	27.375	61.625
 548	8.9634	92.695	8.7975	38.875	59.5	27.625
 549	32.387	45.286	72.51	15.75	21.875	39.125
 550	48.879	44.876	39.601	24.75	16.125	16.625
 551	61.287	11.463	77.817	29	14.25	42.625
 552	25.396	43.768	11.365	11.5	12	6.75
 553	76.983	53.137	73.131	57.125	30.875	47.875
 554	43.083	65.437	28.359	30	29.25	18.5
 555	11.708	51.209	32.796	11.375	17.5	13.25
 556	71.238	41.136	23.296	44.375	14.75	13.375
 557	21.758	7.4731	22.877	3.625	1.75	3.75
 558	23.721	37.471	27.997	9.125	9.75	8.625
 559	10.847	0	52.434	1.5	4.5	15.75
 560	52.184	32.794	25.185	23.5	9.25	9.25
 561	25.164	57.264	2.5113	17.25	20.625	10.125
 562	25.531	62.973	45.088	20.75	28	23.25
 563	59.406	92.015	9.9812	63.125	61.25	31
 564	9.0031	43.883	94.414	9.625	27.875	65.625
 565	29.38	24.618	40.51	8.25	6.625	11.625
 566	56.497	10.252	5.6832	23.5	3.375	4.25
 567	70.521	20.255	56.201	38.875	11.375	25.125
 568	81.365	40.212	31.436	57.75	16.5	17.5
 569	56.55	19.28	86.012	25.75	17.875	52.75
 570	25.096	37.115	57.433	9.75	13.75	23.375
 571	87.229	43.818	88.57	69.25	31.75	65.875
 572	9.0945	89.498	36.178	36.125	56.5	32.125
 573	60.107	91.337	22.013	62.375	60.5	32.375
 574	43.216	91.406	24.486	49.625	59.5	31.25
 575	55.315	58.321	10.243	35.125	23.125	13.5
 576	63.269	92.59	62.685	67.75	68.75	54.875
 577	20.915	89.348	8.0709	38	54.5	25.625
 578	33.841	42.636	23.687	14.625	12.25	9.125
 579	82.32	36.054	11.955	57.25	13.25	12.25
 580	78.197	45.345	53.373	55	21.75	29
 581	87.492	64.105	49.348	78.375	35.75	34.75
 582	80.208	74.738	68.707	74.625	49.25	53.25
 583	12.847	33.194	39.194	5.625	8.75	11.5
 584	15.215	55.484	78.368	14.625	29.25	47.5
 585	25.437	6.1049	39.533	4.75	3.25	9.375
 586	57.87	49.584	46.944	33.75	20.75	22.75
 587	67.62	65.849	53.975	51.375	35	34.125
 588	26.643	41.991	38.871	11.5	13.25	13.875
 589	42.8	8.7865	22.456	13	2.75	5.125
 590	57.049	35.385	77.322	28.875	20.125	44.625
 591	36.112	43.832	54.787	16.625	17	23.75
 592	62.719	62.395	77.348	45.25	37.625	53
 593	60.706	81.416	54.884	54.875	51.75	41.125
 594	90.695	4.9508	56.719	66.875	12.5	28.875
 595	43.936	24.373	43.898	16	7.875	14.375
 596	4.3825	24.21	30.612	2.75	4.875	6.75
 597	53.911	79.942	42.742	47.875	46.625	32.125
 598	90.172	22.149	68.288	67.75	17.625	39.875
 599	77.586	29.345	63	49.125	16.25	32.75
 600	60.572	25.668	63.187	29.625	13.25	29.75
 601	97.729	10.927	74.359	80.125	18.75	46.75
 602	57.769	8.0576	53.146	24.75	7.625	20.25
 603	77.517	92.691	61.488	85.625	70.625	56.5
 604	44.198	38.831	60.002	19.875	16.25	27.375
 605	65.034	81.736	33.44	60	49.625	31.125
 606	67.829	69.791	24.123	53.625	35.125	22.25
 607	25.001	99.668	13.437	49.375	71.875	33.75
 608	89.683	25.837	56.548	67.125	15.875	30.375
 609	41.656	51.246	11.867	22.125	17.25	10
 610	23.72	38.131	96.84	10.875	26.625	68.375
 611	78.049	6.5915	25.803	47.25	6.5	11
 612	46.116	56.291	55.29	27.75	25.625	28.625
 613	92.023	9.1483	37.844	68.75	10.125	18.75
 614	91.068	89.904	23.497	104.5	63.25	38.25
 615	76.477	27.045	32.402	47.5	10.5	14.375
 616	42.661	5.2197	80.136	13.625	12.875	42.875
 617	6.2584	65.435	77.208	18.875	37.125	49.75
 618	89.71	95.846	52.578	107.75	75.875	55.5
 619	88.397	77.149	94.397	89.5	61.875	87.125
 620	78.888	91.034	93.609	87.125	78.75	92.875
 621	47.82	92.501	59	53.625	66.125	49.625
 622	23.826	47.444	80.539	13.375	25.125	48.375
 623	9.0413	12.29	37.978	1.625	3.25	8.375
 624	23.331	16.308	46.267	5.125	5.25	13.25
 625	35.756	10.704	35.9	9.25	3.75	8.75
 626	2.9969	77.21	88.879	26.625	52.75	69.75
 627	28.436	75.743	23.117	29.625	38.25	20.625
 628	9.0221	78.989	30.58	27.375	42.125	23.625
 629	8.803	17.371	0.30943	1.875	2	1.125
 630	60.16	36.719	3.7856	30.875	10.625	7.75
 631	7.0698	90.899	57.373	37.125	61.625	44.75
 632	79.721	9.527	45.163	49.375	9.125	19.375
 633	10.879	74.236	95.746	25.75	52.5	78.5
 634	64.217	22.086	74.373	32.625	15.5	40.25
 635	70.017	40.853	76.607	43.75	23.75	47.125
 636	4.7334	24.411	48.203	3	7.125	14.625
 637	50.973	26.358	13.005	20.625	6.25	5.75
 638	2.5724	55.065	90.994	13.5	33.75	63.875
 639	90.879	45.601	57.982	74.75	24.875	35.25
 640	68.145	79.947	44.862	61.75	48.375	35.5
 641	1.4829	67.595	54.158	19.375	33.5	30.125
 642	98.031	12.492	26.865	79.375	10.375	16.375
 643	76.47	93.209	18.886	84	65.375	35.875
 644	87.292	66.922	80.462	80.125	45.75	63.375
 645	10.233	96.829	47.233	43.125	68.875	42.5
 646	68.028	67.167	39.031	52.875	34.375	26.625
 647	45.312	94.998	9.2426	54.125	64.375	31.25
 648	77.97	53.709	40.015	58.125	24.875	23.875
 649	39.314	57.645	38.8	23.875	23.5	19.125
 650	57.297	82.865	67.439	53.625	56	51.75
 651	37.555	22.599	31.928	11.5	5.5	8.375
 652	92.35	23.597	40.911	71.375	13.25	21.375
 653	9.366	69.976	21.141	21	31.875	16.75
 654	51.187	19.14	23.012	19.875	5	6.75
 655	79.397	80.212	79.858	77.375	58.375	67.75
 656	95.392	55.226	12.927	87.5	26.5	20.75
 657	41.375	92.945	46.055	50.25	64.25	40.875
 658	45.146	82.618	89.901	44.75	61.5	76.5
 659	77.443	63.822	71.275	63.5	38.625	49.75
 660	53.973	31.254	55.289	24.875	12.75	23.375
 661	67.321	92.812	91.875	73.5	78.5	88.875
 662	39.436	37.141	40.709	16	11.625	14.375
 663	97.731	46.918	91.781	89	37.125	74.75
 664	40.993	6.1961	67.428	12.375	9.125	29.25
 665	79.123	80.606	57.718	76.5	53	46.625
 666	28.913	52.537	29.968	16.375	18.625	13.375
 667	14.658	37.254	73.035	7.625	17.25	36.875
 668	82.795	16.173	87.132	55.5	21	58.875
 669	8.3262	91.659	83.695	38.75	70.125	72
 670	45.527	77.031	49.285	39.5	44	33.5
 671	9.0854	40.031	62.08	7.5	15.875	27.375
 672	95.919	70.219	40.212	96.75	41.625	34.875
 673	42.67	92.336	77.786	50.75	71	67.375
 674	94.26	40.143	78.486	80	28	54.375
 675	65.647	53.082	89.436	44.25	34.75	66.125
 676	81.521	18.364	16.183	52.125	7.875	10.25
 677	8.4681	2.026	9.4857	0.875	0.5	1
 678	30.651	60.55	56.553	21.375	28.375	29.875
 679	53.483	73.043	73.646	43.25	45.5	52
 680	90.408	54.335	1.4985	77.375	24.625	18.125
 681	26.668	7.7075	63.496	5.875	7.5	24.625
 682	58.933	25.917	94.913	29	23.25	67.25
 683	9.8548	0.76371	72.617	1.75	9	32.5
 684	47.99	75.517	31.176	39.625	39.875	24.375
 685	48.087	9.0808	60.091	17	8.125	24
 686	10.988	21.876	19.614	2.875	3.5	3.75
 687	22.598	55.646	65.078	16	25.875	34.125
 688	9.0697	82.142	78.531	30.5	54.875	59.25
 689	90.301	42.459	39.12	72.875	20	23.25
 690	47.378	36.472	11.171	20.5	9.625	6.875
 691	49.382	1.8032	9.66	16.875	2.25	3.375
 692	1.9703	20.522	9.5307	1.875	2.75	2
 693	81.649	69.738	31.735	72.125	37.625	27.25
 694	34.53	73.626	67.13	31.25	42.625	44.375
 695	81.659	80.94	43.479	80.375	51.5	38.375
 696	10.291	63.628	90.197	18.75	39.875	65.875
 697	9.3825	51.554	18.669	11	16.625	9.375
 698	17.762	96.201	72.191	44.375	73.625	61.875
 699	67.56	52.693	6.6256	44.625	20.375	13.125
 700	45.853	7.7641	41.225	15	4.75	12
 701	10.95	73.197	73.054	24.125	43.375	49.25
 702	30.698	39.723	1.525	12.125	9.875	5.375
 703	81.002	52.333	91.825	62.75	37.5	72.25
 704	51.213	8.005	98.43	20.625	20.625	70
 705	5.4368	7.4372	80.307	1.75	11.625	40.875
 706	23.483	5.5586	76.358	4.875	10.625	37.125
 707	32.278	78.328	11.186	32.75	40.875	20.25
 708	4.5816	10.694	55.933	1.375	5.75	18.375
 709	89.829	62.524	36.614	81	33.125	28.375
 710	80.544	47.439	8.1742	59.125	18.75	14.125
 711	52.75	18.751	64.422	21.625	11	28.75
 712	62.358	2.6644	71.659	29.375	11.875	35.875
 713	64.674	45.928	67.561	39	23.625	38.125
 714	9.4766	33.184	90.141	6.25	21.125	56.75
 715	70.466	56.323	80.091	50.375	34.625	55.875
 716	57.237	71.111	99.776	45.875	53.375	87.125
 717	87.665	54.898	77.235	74	34.75	55.125
 718	16.33	71.595	0.85939	23.125	32.75	15.25
 719	35.3	79.117	32.908	34.75	43.25	25.75
 720	28.667	65.599	9.3944	23.125	27.625	13.75
 721	6.4435	54.089	70.225	12.625	26	38.5
 722	61.839	6.8281	38.81	28	5.625	12.625
 723	26.82	89.87	94.786	41.625	72.25	86.875
 724	5.7523	92.776	20.962	38.25	59.75	29.125
 725	75.073	63.309	7.8752	58.625	29.375	18.25
 726	61.102	20.846	50.693	28.875	9.5	20
 727	22.212	92.446	35.502	41.125	61.125	34
 728	92.086	35.29	8.3735	72.75	14.5	14.125
 729	6.1371	56.812	8.6847	13	19.5	9.5
 730	17.496	95.134	90.968	43.75	78.625	84
 731	97.652	22.856	91.04	81.75	26.625	68.625
 732	49.838	56.677	94.927	31.625	38.375	73.25
 733	52.347	66.189	89.979	38.25	44.25	69.25
 734	9.2025	61.07	60.052	16	28.625	31.75
 735	91.322	33.889	95.067	72.625	30.5	74.25
 736	35.535	50.421	47.701	18.75	19.625	21.125
 737	90.687	67.765	92.424	86.25	51.375	80.125
 738	23.14	27.979	7.2528	6.5	5	3.125
 739	74.571	37.346	94.34	48.625	29	69.875
 740	94.499	74.711	82.469	97	55.5	71.75
 741	43.662	60.242	6.7089	27.375	23.625	12.5
 742	94.229	53.959	43.646	84.25	28	29.75
 743	88.819	11.383	66.503	63.375	15	36.5
 744	32.047	21.909	62.334	9.125	9.75	25.125
 745	54.95	92.541	82.626	60.5	73.375	73.625
 746	71.956	56.212	58.905	51.375	28.875	35
 747	99.325	70.902	23.244	103	41.25	30.125
 748	90.147	23.875	23.537	66.5	11	14.375
 749	4.9251	37.67	45.258	6.125	11.5	15.375
 750	92.003	4.3641	46.508	68	10.875	22.75
 751	8.0287	68.481	36.597	20	31.375	21
 752	94.712	55.38	27.877	85.875	27.625	23.75
 753	59.036	41.793	22.693	31.625	13.75	11.375
 754	75.085	4.1457	81.543	43.625	16.5	49.125
 755	63.301	73.58	81.794	53.125	49.875	63.625
 756	87.889	97.159	72.707	106.25	81.875	72.625
 757	39.453	9.5152	91.318	12.375	17	57.625
 758	26.353	18.572	94.841	7.625	19.125	62.25
 759	19.325	8.4249	4.496	3	1	1.125
 760	14.945	80.063	53.214	29.375	47.25	35.875
 761	56.393	7.7606	18.733	22.875	3.5	5.75
 762	53.296	91.987	40.941	57.125	62.625	38.5
 763	91.714	5.4089	17.461	67.875	8.125	12.125
 764	35.214	69.883	47.511	28.625	35.375	28.375
 765	54.174	65.046	39.976	37.875	31	24
 766	0.48739	73.38	13.583	22.625	34.875	17
 767	45.038	24.464	90.44	17.625	19.75	58
 768	63.657	41.354	57.623	36.375	18.625	28.375
 769	60.349	99.318	73.525	71.5	82.375	69.5
 770	45.802	53.303	31.659	25.5	20	15.375
 771	66.01	80.362	74.383	60.375	55.125	58.375
 772	23.949	64.714	91.592	22.5	42.125	68.5
 773	74.347	9.4171	54.078	42.125	9.75	23.5
 774	92.529	91.743	63.785	107.5	71.25	61.25
 775	27.251	94.198	55.878	44.625	67.125	47
 776	35.57	11.733	10.395	9	2.125	2.625
 777	2.5649	51.038	46.451	10.625	19.125	19.375
 778	91.133	22.688	78.884	69.375	21	51.375
 779	9.3684	3.2632	25.712	1	1.375	3.875
 780	89.782	58.781	98.566	80.25	46.25	86.125
 781	91.178	92.619	40.078	105.75	69	46.375
 782	67.918	75.593	60.707	58.25	46.125	43.75
 783	21.214	7.6666	93.134	5	16.75	58.875
 784	16.312	15.496	27.702	3	2.875	5.125
 785	55.058	61.647	63.033	37.125	32.25	37.625
 786	64.827	43.743	39.237	38.375	16.875	18.375
 787	76.437	76.558	23.556	68.375	43.75	27
 788	23.505	31.715	37.321	7.5	8.125	10.875
 789	73.049	16.469	95.896	42.5	23	69.625
 790	86.35	91.415	7.6506	97.375	64	35.75
 791	75.383	18.628	65.782	44.625	13.75	33.375
 792	69.893	90.723	32.423	73	61.875	36.875
 793	48.41	50.555	75.728	27	26.75	45.5
 794	66.07	6.5086	22.487	32	4.75	7.875
 795	56.705	65.792	24.032	39.875	30.125	18.875
 796	76.562	34.662	51.314	49.25	15.875	24.875
 797	79.282	37.864	70.629	54.125	21.875	42
 798	61.86	83.501	85.092	58.5	62	72.125
 799	55.206	71.204	58.769	42.75	39.875	38.125
 800	41.161	67.679	77.016	31	40.25	52
 801	39.082	35.254	73.407	15.75	17.375	38.125
 802	54.232	98.131	91.703	65.625	86	90.25
 803	52.316	68.565	11.225	38.125	31.875	17.125
 804	13.126	31.651	17.948	5	6.375	4.75
 805	41.211	67.64	94.245	31.875	46.5	75.125
 806	6.2691	78.009	44.653	26.375	42.5	29.375
 807	18.472	48.506	58.249	11.875	19.75	26.625
 808	91.193	95.684	89.468	110.875	85.5	92.875
 809	90.576	89.753	96.277	103.625	79.375	98.875
 810	91.055	18.181	4.8873	67.875	9.125	11.25
 811	9.5158	57.466	44.934	14.125	23.125	20.75
 812	74.253	8.6243	35.462	42.25	7	13.5
 813	30.958	79.592	58.964	33.5	47.875	40.125
 814	64.297	44.2	12.447	37.25	15	10.875
 815	90.387	78.022	2.123	91.75	46.625	28.25
 816	38.276	57.67	62.47	23.75	27.75	34.125
 817	69.306	81.298	10.013	64	47.625	26.125
 818	11.786	56.194	98.458	15.25	37.75	76.5
 819	37.361	92.605	63.696	47.875	67.125	52.5
 820	99.099	26.774	11.31	84.125	13	15
 821	33.69	80.487	44.1	35.375	46.5	31.625
 822	58.378	47.696	96.771	34.625	33.75	74
 823	8.31	80.971	8.1118	28.375	43	20.25
 824	36.053	31.424	11.914	12.25	6.875	4.875
 825	23.96	74.365	97.709	28.625	53.75	83
 826	2.2643	18.895	91.763	3	17.375	57.25
 827	33.23	92.745	7.8538	44.75	59.625	28.375
 828	74.486	38.764	0.43818	47	13.125	10.375
 829	72.293	67.732	84.511	58.875	45.75	65.5
 830	71.349	55.278	23.75	49.125	23.125	17.125
 831	10.998	19.916	82.596	3.625	14.25	44.75
 832	1.5798	33.328	79.698	5.25	17.25	43.5
 833	61.955	8.9911	90.766	29.5	18.625	59.125
 834	44.195	40.277	31.491	19.5	12.375	11.75
 835	59.06	79.425	21.32	51.375	44.25	24.875
 836	9.8214	2.9467	42.842	1.25	3.125	10.375
END_DATA
