CTI3
DESCRIPTOR	"Calibration Target chart information 3"
ORIGINATOR	"ColorHug Factory"
DEVICE_CLASS	"DISPLAY"
COLOR_REP	"RGB_XYZ"
TARGET_INSTRUMENT	"ColorHug"
INSTRUMENT_TYPE_SPECTRAL	"NO"
LUMINANCE_XYZ_CDM2	"42.972565 36.106110 39.882660"
NORMALIZED_TO_Y_100	"YES"
NUMBER_OF_FIELDS	7
NUMBER_OF_SETS	836
BEGIN_DATA_FORMAT
 SAMPLE_ID	RGB_R	RGB_G	RGB_B	XYZ_X	XYZ_Y	XYZ_Z
END_DATA_FORMAT
BEGIN_DATA
 1	100	100	100	108.75	98.75	108.125
 2	100	100	100	120.625	97.5	109.375
 3	100	100	100	120	100	108.75
 4	100	100	100	120	98.125	109.375
 5	33.33	32.622	30.968	10.625	8.75	9.375
 6	100	0	100	75	26.25	76.25
 7	100	100	0	120	82.5	44.375
 8	0	100	100	46.25	91.875	96.875
 9	0	100	0	41.875	74.375	33.75
 10	0	0	100	1.875	18.125	65
 11	100	0	0	73.125	8.75	12.5
 12	0	0	0	0.625	0.625	0.625
 13	0	52.455	100	11.25	35	73.125
 14	100	0	50.3	74.375	13.125	25.625
 15	100	54.739	100	86.25	45.625	85
 16	100	52.128	0	85.625	25	19.375
 17	0	0	46.181	1.25	3.75	11.25
 18	0	51.141	0	9.375	16.875	8.125
 19	0	100	51.348	43.125	76.875	47.5
 20	100	100	52.037	120	86.25	58.75
 21	49.216	0	0	15.625	2.5	3.125
 22	56.159	100	0	63.125	76.25	36.25
 23	49.226	100	100	58.75	93.75	100
 24	44.487	0	100	14.375	20	66.875
 25	100	44.498	52.029	81.25	25.625	31.875
 26	48.926	48.544	100	26.25	35	72.5
 27	51.368	100	47.25	58.75	78.125	48.75
 28	49.893	0	49.033	16.25	6.25	16.25
 29	53.109	51.372	0	27.5	19.375	10.625
 30	0	58.587	53.943	13.75	26.875	25.625
 31	100	28.065	100	78.75	31.25	78.75
 32	0	0	72.874	1.25	8.75	30.625
 33	0	26.758	100	4.375	23.125	66.875
 34	0	25.426	0	2.5	4.375	2.5
 35	72.508	0	100	36.875	22.5	69.375
 36	100	27.395	0	76.25	13.125	13.75
 37	74.47	100	100	79.375	95.625	104.375
 38	100	0	25.728	73.75	10	15.625
 39	73.862	0	0	37.5	4.375	6.25
 40	100	100	25.402	118.75	83.125	48.125
 41	0	75.751	100	34.375	56.25	83.125
 42	0	75.172	0	22.5	37.5	18.125
 43	0	100	25.864	41.875	75	37.5
 44	100	0	74.801	75.625	17.5	44.375
 45	0	100	75.421	44.375	83.75	65.625
 46	24.577	0	0	4.375	1.25	1.25
 47	26.321	100	0	46.875	74.375	33.75
 48	100	75.835	0	96.25	46.875	29.375
 49	100	100	77.061	120.625	91.25	78.75
 50	71.263	100	0	78.125	76.875	38.75
 51	0	0	15.614	0.625	0.625	2.5
 52	0	30.049	70.936	4.375	13.75	31.25
 53	100	77.691	100	92.5	67.5	95.625
 54	24.486	100	100	48.75	90.625	98.125
 55	100	62.784	31.909	88.75	35.625	29.375
 56	29.552	0	100	8.75	19.375	64.375
 57	32.98	70.921	100	27.5	52.5	79.375
 58	0	27.681	40.241	3.75	7.5	11.25
 59	67.901	71.021	100	51.875	55.625	83.125
 60	28.154	100	67.829	48.125	81.875	59.375
 61	71.637	100	70.001	77.5	84.375	67.5
 62	58.822	58.763	53.586	35.625	28.75	29.375
 63	33.466	30.48	0	11.25	6.875	3.75
 64	100	73.795	71.277	95.625	52.5	58.125
 65	68.394	29.692	0	35.625	9.375	8.125
 66	70.399	0	29.039	33.125	5	10.625
 67	28.078	0	26.956	5.625	1.875	5
 68	28.532	72.339	0	25	35.625	16.875
 69	100	30.941	26.496	60	15	17.5
 70	34.597	0	73.611	8.75	10	32.5
 71	71.573	0	72.408	35.625	12.5	35.625
 72	0	71.029	29.412	20	35.625	20
 73	68.386	75.008	0	53.125	40.625	22.5
 74	68.088	27.309	100	35.625	26.25	71.875
 75	100	26.457	73.749	78.125	21.875	45
 76	74.344	100	27.392	81.25	77.5	43.125
 77	27.558	100	28.197	46.875	75.625	38.75
 78	31.196	27.465	100	10.625	23.125	68.125
 79	0	75.521	72.824	23.75	46.875	47.5
 80	0	50.93	25.553	9.375	17.5	11.25
 81	32.06	33.584	64.033	10.625	14.375	26.875
 82	81.666	55.38	0	56.875	24.375	16.25
 83	68.257	32.751	58.286	36.875	15.625	26.875
 84	0	55.248	81.585	13.125	30.625	48.75
 85	73.781	52.099	100	34.375	39.375	76.875
 86	100	50.537	82.952	83.75	36.25	60.625
 87	23.55	0	50.439	9.375	5	15
 88	31.335	62.746	31.114	21.25	27.5	18.125
 89	100	18.31	49.418	76.25	14.375	25.625
 90	26.498	48.404	0	13.125	16.25	7.5
 91	47.91	100	85.744	58.125	86.875	79.375
 92	71.829	47.313	31.811	43.125	20	17.5
 93	31.304	64.132	69.316	32.5	35.625	40.625
 94	80.403	0	54.321	44.375	10	23.75
 95	18.455	50.036	100	18.125	34.375	71.25
 96	50.653	100	16.345	58.125	75	37.5
 97	80.121	100	52.261	88.75	83.125	54.375
 98	0	22.54	19.289	20	3.75	4.375
 99	100	75.273	46.886	98.125	49.375	40
 100	0	78.618	56.625	25	47.5	36.875
 101	51.137	80.627	100	41.25	64.375	85.625
 102	48.446	0	17.864	15.625	3.125	4.375
 103	100	50.023	21.211	82.5	25	21.25
 104	50.115	20.118	0	17.5	5	4.375
 105	58.099	72.426	33.158	42.5	38.75	24.375
 106	19.364	100	50.197	45.625	78.125	47.5
 107	50.683	19.177	100	19.375	22.5	68.75
 108	53.37	0	81.576	19.375	13.75	43.125
 109	47.768	76.245	0	37.5	40.625	20.625
 110	0	18.927	55.503	2.5	7.5	18.125
 111	0	13.277	0	1.25	1.875	1.25
 112	72.862	72.473	75.625	55.625	47.5	54.375
 113	100	13.904	0	74.375	10	13.125
 114	86.349	0	100	64.375	24.375	71.875
 115	100	41.941	100	81.25	36.875	81.25
 116	100	81.785	16.464	103.75	54.375	33.75
 117	0	44.063	52.596	60	16.875	20.625
 118	0	0	58.917	0.625	5.625	19.375
 119	59.25	24.551	29.789	18.125	8.125	10
 120	82.73	82.874	100	48.125	71.25	92.5
 121	80.039	0	12.618	44.375	6.25	8.125
 122	60.957	47.729	77.817	33.75	26.875	46.25
 123	100	0	38.618	67.5	10.625	20
 124	0	40.09	100	30	28.75	69.375
 125	0	15.283	82.322	2.5	13.125	40.625
 126	17.592	81.726	100	29.375	63.75	86.25
 127	100	14.13	100	77.5	28.125	75.625
 128	15.261	100	82.059	45.625	85.625	73.125
 129	47.77	79.418	60.389	40	49.375	42.5
 130	18.768	16.429	0	3.75	2.5	1.875
 131	55.634	100	65.763	62.5	81.25	61.25
 132	100	100	38.541	99.375	85	53.125
 133	17.421	0	83.497	3.75	12.5	42.5
 134	17.237	16.758	100	5	20.625	66.25
 135	0	15.067	30.039	1.875	3.125	6.25
 136	0	0	86.505	1.875	13.125	45
 137	75.736	72.799	50.02	60.625	43.125	35.625
 138	100	83.323	85.529	103.75	68.75	78.75
 139	100	100	64.894	117.5	86.875	68.75
 140	81.98	84.914	0	76.25	55	30.625
 141	0	63.757	15.49	35.625	26.875	14.375
 142	49.514	66.135	100	34.375	48.125	79.375
 143	100	0	61.862	75	14.375	33.125
 144	24.308	45.41	49.831	11.25	16.875	20.625
 145	15.963	0	17.047	1.875	1.25	2.5
 146	87.497	100	100	100	96.875	105
 147	52.099	25.003	75.752	20.625	15.625	38.125
 148	14.909	81.162	0	27.5	44.375	21.25
 149	0	34.792	14.626	4.375	8.125	5
 150	48.39	45.075	22.552	22.5	15.625	11.25
 151	83.545	65.965	100	68.125	52.5	83.75
 152	16.226	62.345	0	16.875	25	12.5
 153	63.222	0	14.914	25	4.375	5.625
 154	80.449	13.446	0	45	6.875	8.125
 155	83.917	41.562	0	54.375	16.875	13.125
 156	100	60.448	46.3	88.125	35	35
 157	15.584	0	34.795	1.875	2.5	6.875
 158	17.144	65.121	100	20	45.625	77.5
 159	83.602	55.334	62.667	60.625	31.25	38.125
 160	0	82.19	14.22	28.75	45.625	22.5
 161	25.132	74.856	50.616	26.25	41.25	32.5
 162	0	13.769	100	3.125	19.375	66.25
 163	87.181	0	0	52.5	6.25	9.375
 164	0	100	39.19	42.5	74.375	41.875
 165	78.047	65.914	19.865	59.375	33.75	21.875
 166	100	63.961	15.865	91.25	36.25	25
 167	100	45.955	36.032	81.875	23.75	25
 168	15.926	100	16.89	75.625	74.375	35.625
 169	41.459	100	0	51.875	75.625	35
 170	48.707	37.288	48.139	21.875	14.375	18.75
 171	83.381	100	13.285	83.125	80	42.5
 172	78.129	25.303	75.621	45.625	18.125	41.875
 173	12.396	0	0	1.875	0.625	1.25
 174	37.607	48.336	83.346	15.625	28.125	49.375
 175	35.588	15.356	0	9.375	2.5	2.5
 176	61.245	100	100	68.125	93.125	101.25
 177	100	67.29	87.195	92.5	51.25	71.875
 178	0	0	30.615	0.625	1.875	5
 179	35.187	81.789	83.323	34.375	59.375	63.75
 180	39.525	80.194	22.879	35.625	46.25	24.375
 181	50.634	34.593	0	20.625	9.375	6.875
 182	14.175	100	63.146	44.375	79.375	56.875
 183	83.493	17.728	34.574	50	10	15
 184	23.463	22.014	79.943	6.875	14.375	40.625
 185	18.066	31.847	0	6.25	6.875	3.75
 186	87.201	100	81.361	7.5	89.375	81.875
 187	0	100	87.95	43.125	87.5	81.25
 188	34.476	17.888	46.22	9.375	6.25	13.75
 189	18.277	0	67.39	3.75	8.125	26.25
 190	100	87.972	0	105.625	62.5	37.5
 191	82.925	34.85	100	57.5	31.25	75.625
 192	0	88.016	100	49.375	71.25	89.375
 193	36.104	85.655	100	35	70	87.5
 194	60.981	0	0	25	3.75	4.375
 195	51.466	61.826	78.106	32.5	36.25	49.375
 196	78.427	31.983	22.175	45.625	12.5	12.5
 197	66.017	44.321	0	35.625	15.625	11.25
 198	83.941	0	84.177	50	18.125	50.625
 199	20.158	46.612	23.269	11.25	14.375	10
 200	0	100	62.618	42.5	80	56.25
 201	33.832	0	13.933	7.5	1.875	2.5
 202	100	17.286	16.322	75.625	10.625	14.375
 203	0	42.204	83.926	8.75	23.125	48.125
 204	0	87.774	0	31.25	53.125	25
 205	64.988	0	59.017	28.125	9.375	23.75
 206	14.677	0	100	13.75	18.75	64.375
 207	88.934	82.673	35.021	83.125	54.375	37.5
 208	0	63.778	100	17.5	45	76.875
 209	83.429	17.674	100	50.625	25.625	73.75
 210	30.899	100	85.668	50	86.875	77.5
 211	83.68	0	41.016	49.375	8.75	16.875
 212	100	63.515	0	90	35	23.75
 213	85.074	69.987	0	71.25	38.125	22.5
 214	20.801	45.524	69.018	11.25	21.25	33.75
 215	21.382	82.482	73.017	31.25	56.25	53.125
 216	100	15.128	64.249	73.75	16.875	35.625
 217	36.522	0	58.427	10.625	6.875	20
 218	22.466	81.296	33.007	30	48.125	26.875
 219	62.531	87.152	0	55.625	56.25	28.75
 220	84.12	85.397	67.886	65	63.75	57.5
 221	18.87	27.336	45.389	48.75	8.125	13.75
 222	66.439	100	14.444	69.375	78.125	39.375
 223	41.636	22.147	19.003	21.25	5.625	5.625
 224	61.271	100	81.94	66.25	87.5	78.125
 225	86.013	100	0	95.625	80.625	41.875
 226	37.57	0	0	8.75	1.25	1.875
 227	100	16.132	84.102	75.625	21.875	56.25
 228	0	100	13.619	50	73.125	34.375
 229	38.905	100	56.471	47.5	78.75	52.5
 230	100	15.382	34.563	69.375	12.5	18.75
 231	36.656	14.908	100	10.625	20.625	66.25
 232	0	62.593	66.608	15.625	32.5	36.875
 233	66.347	12.528	100	31.25	22.5	70
 234	100	43.375	69.233	81.875	28.125	44.375
 235	100	56.36	61.236	85.625	34.375	42.5
 236	0	86.194	44.955	31.25	55	34.375
 237	64.527	87.262	100	58.75	74.375	93.75
 238	34.411	0	42.471	25.625	4.375	11.25
 239	80.23	59.707	85.12	59.375	40	61.875
 240	20.625	19.056	14.791	4.375	3.125	3.75
 241	15.341	34.221	100	7.5	25.625	67.5
 242	36.777	0	87.905	9.375	14.375	48.75
 243	34.598	56.247	100	21.25	38.75	75
 244	20.86	67.629	17.418	20.625	30.625	16.875
 245	44.958	60.843	18.054	26.875	26.875	15
 246	37.421	60.193	0	21.875	25	12.5
 247	84.011	33.849	42.612	54.375	15.625	20.625
 248	17.241	60.339	37.743	16.25	25.625	18.75
 249	50.65	17.261	53.278	18.75	8.125	19.375
 250	45.505	48.926	65.152	22.5	23.75	32.5
 251	44.567	84.081	39.649	37.5	53.125	32.5
 252	100	86.339	72.054	94.375	69.375	65.625
 253	68.14	61.135	0	66.875	27.5	16.25
 254	17.93	66.986	81.403	21.25	40	53.75
 255	39.242	60.215	48.926	23.75	28.75	25
 256	20.099	18.77	62.967	5	9.375	23.75
 257	34.553	100	14.582	49.375	74.375	35.625
 258	87.345	0	66.694	53.75	13.75	34.375
 259	0	43.714	39.842	7.5	15	14.375
 260	100	37.705	13.955	78.75	18.125	16.875
 261	31.265	86.993	0	58.125	52.5	25.625
 262	51.402	82.661	81.338	45	60	63.125
 263	100	100	12.984	116.875	82.5	46.25
 264	0	37.859	0	40	8.75	5
 265	62.092	58.215	100	39.375	42.5	77.5
 266	86.186	100	64.1	95.625	86.875	64.375
 267	100	35.251	85.898	80.625	28.75	60
 268	63.182	89.992	41.974	60.625	63.125	39.375
 269	13.504	100	0	43.75	73.75	34.375
 270	100	0	13.228	66.25	9.375	13.125
 271	63.881	40.826	100	35	31.25	73.125
 272	69.387	84.838	20.792	61.25	55	30
 273	0	70.279	45.136	20	35.625	26.875
 274	79.094	64.754	40.908	52.5	35.625	28.125
 275	62.385	54.099	17.396	36.875	21.875	14.375
 276	64.408	14.621	0	28.75	5.625	5
 277	70.028	15.606	44.651	33.125	8.75	16.875
 278	0	63.544	0	15.625	26.875	11.875
 279	83.475	47.274	20.502	55.625	20.625	16.25
 280	55.866	0	32.671	29.375	4.375	8.75
 281	58.007	0	100	23.75	20.625	67.5
 282	100	0	87.698	73.125	21.875	58.75
 283	0	13.792	67.215	1.875	9.375	26.25
 284	84.123	17.001	58.549	48.75	13.75	27.5
 285	59.579	32.873	15.966	44.375	10	8.125
 286	10.41	32.998	28.659	6.875	8.75	8.125
 287	17.231	40.031	85.65	8.75	22.5	48.75
 288	37.568	41.561	10.108	15	11.875	7.5
 289	0	69.015	85.092	20	43.75	56.875
 290	14.442	100	36.187	42.5	76.875	40.625
 291	100	40.549	0	80	18.75	16.25
 292	82.143	45.435	78.429	58.125	28.75	48.75
 293	52.674	0	67.3	19.375	10	28.75
 294	0	87.868	66.793	29.375	61.875	50
 295	86.53	100	40.524	96.875	80.625	50.625
 296	71.777	85.586	67.232	65.625	61.25	53.75
 297	43.216	100	31.671	55	76.25	40
 298	39.245	32.908	85.845	17.5	20.625	48.75
 299	0	45.662	67.543	9.375	20.625	31.875
 300	12.161	100	100	35.625	91.25	98.75
 301	67.049	0	85.516	31.25	16.25	49.375
 302	100	89.041	100	108.125	81.25	102.5
 303	20.246	60.698	56.526	16.875	29.375	29.375
 304	52.177	55.457	40.416	28.75	24.375	20.625
 305	72.617	87.018	83.932	62.5	68.75	71.25
 306	40.512	16.723	66.475	12.5	10.625	28.125
 307	68.507	49.232	50.605	40	23.125	26.25
 308	65.622	100	54.525	68.75	81.875	54.375
 309	54.115	37.24	66.394	24.375	18.125	31.25
 310	100	76.138	31.267	96.25	49.375	34.375
 311	54.728	65.623	0	44.375	30	16.25
 312	63.126	12.526	64.37	29.375	11.25	28.75
 313	72.827	18.08	23.704	33.125	7.5	10
 314	23.268	15.278	34.947	5	4.375	8.125
 315	87.648	68.954	59.645	63.125	42.5	43.125
 316	0	85.595	85.198	53.125	63.125	68.125
 317	35.798	84.371	69.21	37.5	58.75	51.25
 318	36.062	47.494	35.919	16.875	17.5	15
 319	86.083	36.277	59.152	56.25	20	31.875
 320	58.21	100	30.361	64.375	76.25	41.875
 321	46.745	14.614	32.317	40.625	5	8.75
 322	81.573	73.869	86.954	69.375	54.375	70
 323	85.991	49.387	48.206	61.875	25	28.125
 324	28.062	87.906	19.654	59.375	55.625	27.5
 325	68.992	17.993	85.124	33.75	18.125	50.625
 326	100	66.147	100	74.375	55.625	89.375
 327	33.358	64.806	84.517	63.125	40	57.5
 328	41.351	17.736	80.522	13.125	15	41.25
 329	100	100	88.719	117.5	95.625	93.125
 330	66.336	0	44.32	30	6.25	16.25
 331	64.85	67.09	12.293	45	33.125	18.75
 332	15.262	31.268	63.277	5.625	12.5	25.625
 333	15.008	43.663	37.3	8.75	14.375	13.125
 334	0	57.895	38.078	12.5	23.125	18.125
 335	66.599	58.458	67.871	42.5	33.125	41.25
 336	59.191	18.651	15.215	24.375	5.625	6.25
 337	66.781	31.14	84.629	34.375	21.875	50.625
 338	88.033	85.158	52.14	80	60	46.875
 339	36.882	100	100	52.5	91.875	99.375
 340	26.102	33.094	17.006	9.375	8.125	5.625
 341	56.309	36.861	35.862	25	13.125	14.375
 342	45.839	65.587	67.033	28.75	37.5	40
 343	83.709	81.172	16.406	51.875	51.25	30
 344	0	48.132	13.005	8.75	15	8.125
 345	87.176	50.021	100	40.625	40.625	79.375
 346	51.219	84.244	13.73	45.625	51.875	26.25
 347	60.606	71.415	48.406	43.75	41.25	31.875
 348	0	11.359	12.718	0.625	1.875	1.875
 349	86.429	49.705	33.145	61.875	23.125	21.25
 350	34.056	40.958	100	43.75	28.75	70
 351	100	30.557	59.628	76.875	20	35
 352	88.497	26.902	13.449	58.125	11.25	11.875
 353	14.167	51.98	88.218	12.5	30.625	55
 354	13.784	12.983	49.37	2.5	5.625	14.375
 355	15.018	88.441	48.062	27.5	58.125	37.5
 356	87.79	25.769	89.215	57.5	24.375	59.375
 357	0	33.206	55.865	5.625	11.875	20.625
 358	74.324	76.029	35.536	52.5	45	30.625
 359	65.863	57.223	42.324	42.5	26.875	23.75
 360	30.893	54.646	13.136	16.875	20.625	11.25
 361	0	34.36	28.321	4.375	9.375	8.125
 362	15.443	77.087	85.116	20	51.875	62.5
 363	63.381	68.947	68.521	44.375	42.5	45
 364	69.733	27.566	42.917	35.625	11.25	18.125
 365	32.754	100	42.76	48.75	78.125	44.375
 366	47.096	29.481	34.829	18.125	9.375	11.25
 367	8.5451	71.948	62.695	21.25	41.25	38.125
 368	0	86.048	29.3	30.625	51.875	28.125
 369	53.697	51.572	85.367	28.75	31.875	55
 370	17.608	56.69	12.515	14.375	21.875	10.625
 371	90.638	14.414	49.227	53.75	12.5	23.75
 372	63.248	63.64	89.55	45	43.75	66.25
 373	100	85.976	58.455	101.25	65.625	53.75
 374	9.8311	28.027	7.5567	4.375	5.625	3.125
 375	89.831	64.313	69.506	74.375	41.25	48.75
 376	31.754	12.995	25.543	7.5	3.125	5.625
 377	75.914	45.966	64.957	48.125	24.375	35.625
 378	7.5735	50.695	58.941	10.625	22.5	26.875
 379	100	69.835	58.912	91.875	46.875	46.25
 380	32.211	34.376	48.339	11.875	11.25	18.125
 381	13.901	12.159	73.555	3.125	10.625	32.5
 382	87.071	9.028	77.653	53.75	17.5	45
 383	23.272	85.409	84.29	34.375	63.125	65.625
 384	93.289	39.48	26.145	68.125	18.125	18.125
 385	65.769	59.63	30.967	41.875	28.125	20.625
 386	100	32.265	41.803	78.125	18.125	23.75
 387	86.568	85.281	86.961	83.125	68.125	77.5
 388	52.577	86.83	30.016	48.75	55	31.875
 389	47.921	40.199	76.902	21.25	22.5	41.875
 390	22.36	86.619	61.58	33.75	57.5	45.625
 391	52.232	33.601	88.787	23.125	22.5	55
 392	0	28.523	86.267	4.375	17.5	48.125
 393	43.497	67.879	39.551	28.125	35	24.375
 394	39.877	45.261	0	17.5	13.75	8.125
 395	86.94	12.43	24.699	53.125	8.75	12.5
 396	28.363	55.339	90.398	17.5	34.375	60
 397	39.018	70.534	57.879	28.75	38.75	35.625
 398	12.833	28.519	78.828	5.625	15.625	39.375
 399	68.35	31.815	69.975	35.625	18.125	36.25
 400	56.52	26.226	41.626	23.125	10	15
 401	12.938	46.218	0	9.375	13.75	6.875
 402	8.6938	60.179	26.117	14.375	25	14.375
 403	51.995	89.429	96.608	51.875	74.375	86.875
 404	46.905	47.746	48.909	22.5	20	22.5
 405	14.352	81.814	19.479	28.125	46.875	23.75
 406	71.482	38.117	12.273	39.375	13.125	10.625
 407	86.616	60.785	10.012	67.5	30	20
 408	71.811	88.979	52.186	67.5	63.125	46.25
 409	43.213	100	72.083	55	83.75	65
 410	73.92	23.444	8.2853	39.375	8.125	8.125
 411	40.629	85.534	53.423	39.375	56.875	41.25
 412	38.955	52.128	22.885	20	19.375	12.5
 413	46.48	12.229	8.6707	14.375	3.125	4.375
 414	40.855	33.301	22.309	14.375	8.75	8.125
 415	76.365	66.787	61.06	54.375	40	40
 416	7.5076	12.025	20.59	2.5	1.875	3.75
 417	85.93	27.031	0	55	10.625	10.625
 418	100	87.757	44.06	107.5	64.375	46.875
 419	41.543	25.624	54.896	15	10	20.625
 420	59.533	76.669	91.789	46.875	56.25	74.375
 421	58.226	12.079	28.862	23.125	5	9.375
 422	50.514	8.8602	88.281	18.125	16.25	51.25
 423	41.983	0	31.301	11.875	3.125	7.5
 424	28.024	36.455	77.877	10.625	19.375	40.625
 425	12.718	41.027	11.129	7.5	11.25	6.25
 426	26.194	75.573	88.088	26.875	51.25	66.25
 427	28.936	71.474	37.671	25.625	36.875	24.375
 428	90.497	74.77	26.512	81.25	45.625	29.375
 429	17.514	75.984	41.507	25.625	41.875	26.875
 430	16.621	64.069	68.891	18.75	34.375	40.625
 431	12.42	21.661	36.669	3.75	5.625	9.375
 432	52.915	46.814	10.465	25	16.875	10
 433	56.979	91.194	52.49	50.625	66.25	44.375
 434	25.14	52.299	42.419	18.75	20.625	18.75
 435	25.587	6.8296	13.004	5	1.875	2.5
 436	55.018	14.818	41.328	20.625	6.875	13.125
 437	93.397	56.942	87.959	75.625	41.25	66.875
 438	28.374	12.057	85.683	7.5	14.375	46.25
 439	78.265	6.7088	92.468	42.5	20.625	60.625
 440	39.694	71.314	6.3658	30	35	17.5
 441	73.259	45.059	87.294	44.375	30	58.125
 442	26.381	57.692	76.454	17.5	31.875	45
 443	66.587	33.629	31.299	33.125	11.875	13.125
 444	88.523	74.434	46.718	75.625	46.25	37.5
 445	76.836	59.92	49.912	55	31.875	30
 446	33.152	90.418	31.148	39.375	60	33.125
 447	55.924	53.388	68.505	31.25	28.75	38.125
 448	77.248	91.798	41.448	75	66.875	43.125
 449	26.737	89.225	45.445	36.25	59.375	37.5
 450	87.642	100	25.942	97.5	79.375	45.625
 451	68.631	100	40.532	73.125	79.375	47.5
 452	14.485	50.449	49.078	11.875	20.625	20.625
 453	10.654	10.664	89.702	3.125	15.625	50
 454	31.962	49.108	62.92	15	21.875	30.625
 455	8.6779	22.468	68.278	3.75	11.25	28.75
 456	74.727	90.586	6.3447	69.375	62.5	33.125
 457	0	12.136	44.106	1.25	4.375	10.625
 458	43.35	78.123	73.61	36.25	52.5	52.5
 459	10.925	11.786	9.5801	2.5	1.875	1.875
 460	15.591	37.386	50.832	7.5	13.125	18.75
 461	10.685	68.959	9.3113	18.75	31.875	15.625
 462	92.017	72.247	12.692	81.25	41.25	26.875
 463	89.839	77.431	73.4	81.875	55	59.375
 464	47.45	74.511	18.753	36.25	39.375	21.25
 465	50.097	90.816	69.461	47.5	67.5	56.875
 466	82.755	34.052	82.994	53.75	24.375	51.875
 467	46.786	72.919	85.794	35	48.75	63.125
 468	9.3304	90.457	73.518	35	66.875	58.125
 469	88.59	61.902	22.128	70.625	31.875	22.5
 470	100	61.262	74.222	88.75	41.875	55.625
 471	86.777	8.8992	8.4672	53.125	7.5	10
 472	39.582	85.966	11.798	40	52.5	26.25
 473	85.958	0	24.986	52.5	7.5	11.875
 474	80.299	22.552	47.163	45.625	12.5	20.625
 475	7.218	45.128	76.547	15.625	22.5	40.625
 476	55.989	48.521	58.428	28.125	23.125	28.75
 477	50.728	10.774	73.284	18.125	12.5	33.75
 478	71.269	10.344	11.008	34.375	5	6.875
 479	91.768	45.194	10.385	67.5	20	16.875
 480	7.8976	42.553	25.13	7.5	12.5	9.375
 481	54.269	55.846	25.175	30.625	23.125	15.625
 482	41.937	24.646	5.4249	13.125	5.625	4.375
 483	89.502	33.423	70.991	60.625	21.875	41.875
 484	75.301	54.745	14.159	50	23.125	16.25
 485	76.653	6.2202	65.75	40.625	12.5	30.625
 486	58.072	77.769	7.4688	45.625	43.125	22.5
 487	27.429	73.801	76.267	27.5	46.875	51.25
 488	39.961	56.279	74.128	22.5	30.625	42.5
 489	23.43	28.561	70.622	7.5	13.75	31.875
 490	91.285	49.258	68.377	68.125	30	43.75
 491	95.591	89.122	11.382	100.625	63.75	36.25
 492	28.451	92.151	76.841	41.25	70	61.875
 493	26.242	26.08	53.808	7.5	9.375	18.75
 494	15.957	92.746	24.983	36.875	63.125	31.25
 495	13.563	9.1545	61.533	2.5	7.5	21.875
 496	13.216	24.593	54.939	4.375	8.75	18.75
 497	91.885	89.769	79.537	95	73.125	72.5
 498	100	88.684	29.334	106.875	65	41.875
 499	34.09	65.771	20.136	24.375	30	16.875
 500	20.961	77.373	9.9329	26.25	41.25	20
 501	48.985	66.059	50.556	31.875	34.375	30
 502	92.409	9.0241	90.897	62.5	21.875	61.25
 503	40.34	11.09	52.408	13.125	6.875	16.875
 504	41.367	58.198	88.277	23.125	36.875	60
 505	72.147	77.604	91.982	55	60	75.625
 506	12.761	67.714	50.147	20	33.75	27.5
 507	76.617	25.882	91.445	43.125	23.125	61.25
 508	92.734	34.742	50.285	63.125	18.75	27.5
 509	16.114	24.64	92.845	6.25	19.375	56.25
 510	22.589	72.255	61.762	23.75	41.875	37.5
 511	79.742	58.911	30.09	52.5	28.75	21.875
 512	75	100	87.265	80.625	90.625	86.875
 513	22.068	58.052	24.509	16.25	23.125	14.375
 514	29.302	20.341	8.3315	10	4.375	3.125
 515	75.009	40.707	41.951	43.125	17.5	20.625
 516	76.599	13.357	74.764	41.875	15.625	39.375
 517	10.272	88.11	94.612	34.375	70	80.625
 518	34.093	23.728	89.777	11.25	18.125	51.875
 519	29.867	13.694	72.95	7.5	11.25	33.125
 520	64.983	91.01	77.614	62.5	70.625	66.25
 521	66.135	26.77	20.928	31.875	8.75	9.375
 522	36.207	25.309	75.344	11.25	14.375	36.875
 523	78.931	73.018	10.687	63.125	40.625	24.375
 524	30.391	22.415	20.277	8.125	5	5
 525	11.242	82.956	64.472	30	54.375	45
 526	80.459	87.628	28.607	75	59.375	36.25
 527	27.707	31.87	88.315	10	20	52.5
 528	62.06	36.458	46.606	30	14.375	20
 529	29.542	11.104	53.546	6.875	6.25	17.5
 530	68.762	19.114	33.778	33.125	8.125	12.5
 531	59.637	48.524	31.174	31.875	19.375	15.625
 532	48.298	33.52	100	20.625	26.875	70.625
 533	45.598	28.163	66.475	16.875	13.75	29.375
 534	29.918	44.928	90.506	14.375	27.5	56.875
 535	78.316	92.636	77.206	77.5	76.25	69.375
 536	91.281	57.367	55.776	71.875	33.125	36.875
 537	21.692	25.08	26.495	5.625	5.625	6.25
 538	74.304	63.813	94.636	53.125	46.25	75
 539	88.481	29.745	32.468	58.125	13.75	16.875
 540	59.486	41.236	87.042	31.25	26.875	53.75
 541	92.045	78.449	60.137	86.25	55	48.125
 542	61.977	24.673	6.6648	28.125	6.875	6.875
 543	40.162	92.786	90.522	46.25	76.25	78.75
 544	36.748	77.066	93.097	33.125	55.625	73.75
 545	20.161	69.446	29.15	21.875	34.375	20
 546	47.187	88.771	0	46.25	57.5	27.5
 547	44.188	43.219	90.474	20.625	27.5	58.75
 548	8.9634	92.695	8.7975	36.25	61.875	28.125
 549	32.387	45.286	72.51	15	22.5	37.5
 550	48.879	44.876	39.601	21.25	17.5	16.875
 551	61.287	11.463	77.817	26.875	14.375	40
 552	25.396	43.768	11.365	11.25	13.125	7.5
 553	76.983	53.137	73.131	51.25	31.875	45.625
 554	43.083	65.437	28.359	29.375	30	19.375
 555	11.708	51.209	32.796	13.75	18.75	13.75
 556	71.238	41.136	23.296	40	16.25	13.125
 557	21.758	7.4731	22.877	3.75	2.5	4.375
 558	23.721	37.471	27.997	6.25	10.625	9.375
 559	10.847	0	52.434	1.875	4.375	15
 560	52.184	32.794	25.185	5.625	10	9.375
 561	25.164	57.264	2.5113	16.875	21.875	10.625
 562	25.531	62.973	45.088	20	29.375	23.75
 563	59.406	92.015	9.9812	56.25	63.125	31.875
 564	9.0031	43.883	94.414	16.25	27.5	61.25
 565	29.38	24.618	40.51	7.5	6.875	11.875
 566	56.497	10.252	5.6832	21.25	3.75	5
 567	70.521	20.255	56.201	34.375	11.25	23.75
 568	81.365	40.212	31.436	51.25	16.875	17.5
 569	56.55	19.28	86.012	23.125	17.5	50
 570	25.096	37.115	57.433	9.375	13.75	22.5
 571	87.229	43.818	88.57	53.75	31.875	61.25
 572	9.0945	89.498	36.178	36.875	58.125	33.125
 573	60.107	91.337	22.013	56.875	61.875	33.125
 574	43.216	91.406	24.486	45	61.25	32.5
 575	55.315	58.321	10.243	32.5	24.375	14.375
 576	63.269	92.59	62.685	61.25	70.625	54.375
 577	20.915	89.348	8.0709	36.25	56.875	26.875
 578	33.841	42.636	23.687	13.75	13.125	10
 579	82.32	36.054	11.955	50	13.75	12.5
 580	78.197	45.345	53.373	50	21.875	28.125
 581	87.492	64.105	49.348	63.125	37.5	34.375
 582	80.208	74.738	68.707	67.5	49.375	51.25
 583	12.847	33.194	39.194	6.875	9.375	11.875
 584	15.215	55.484	78.368	13.75	29.375	46.25
 585	25.437	6.1049	39.533	5	3.75	9.375
 586	57.87	49.584	46.944	31.25	21.875	22.5
 587	67.62	65.849	53.975	47.5	36.875	33.125
 588	26.643	41.991	38.871	11.875	14.375	14.375
 589	42.8	8.7865	22.456	12.5	3.125	5
 590	57.049	35.385	77.322	26.875	20	42.5
 591	36.112	43.832	54.787	16.25	18.125	23.125
 592	62.719	62.395	77.348	41.25	38.75	50.625
 593	60.706	81.416	54.884	50	52.5	41.25
 594	90.695	4.9508	56.719	60	11.875	27.5
 595	43.936	24.373	43.898	15	8.75	14.375
 596	4.3825	24.21	30.612	3.125	5.625	6.875
 597	53.911	79.942	42.742	38.125	47.5	32.5
 598	90.172	22.149	68.288	60	18.125	36.875
 599	77.586	29.345	63	45.625	16.875	31.25
 600	60.572	25.668	63.187	27.5	13.75	28.125
 601	97.729	10.927	74.359	70.625	18.125	44.375
 602	57.769	8.0576	53.146	23.125	8.125	19.375
 603	77.517	92.691	61.488	77.5	70.625	55.625
 604	44.198	38.831	60.002	18.75	16.875	26.875
 605	65.034	81.736	33.44	53.75	49.375	31.25
 606	67.829	69.791	24.123	49.375	36.875	22.5
 607	25.001	99.668	13.437	45.625	71.875	35
 608	89.683	25.837	56.548	59.375	16.25	28.75
 609	41.656	51.246	11.867	20.625	18.125	10.625
 610	23.72	38.131	96.84	10.625	26.25	65
 611	78.049	6.5915	25.803	41.25	6.875	10.625
 612	46.116	56.291	55.29	25.625	26.25	28.125
 613	92.023	9.1483	37.844	61.25	10	18.125
 614	91.068	89.904	23.497	93.125	63.75	38.75
 615	76.477	27.045	32.402	43.125	10.625	14.375
 616	42.661	5.2197	80.136	12.5	13.125	40.625
 617	6.2584	65.435	77.208	17.5	38.125	48.75
 618	89.71	95.846	52.578	95.625	77.5	54.375
 619	88.397	77.149	94.397	80	62.5	83.125
 620	78.888	91.034	93.609	79.375	79.375	86.875
 621	47.82	92.501	59	50	66.875	48.75
 622	23.826	47.444	80.539	13.125	26.25	45.625
 623	9.0413	12.29	37.978	2.5	3.75	8.75
 624	23.331	16.308	46.267	5	6.25	13.125
 625	35.756	10.704	35.9	8.125	3.75	8.75
 626	2.9969	77.21	88.879	24.375	54.375	66.875
 627	28.436	75.743	23.117	27.5	39.375	21.25
 628	9.0221	78.989	30.58	25.625	44.375	24.375
 629	8.803	17.371	0.30943	2.5	2.5	1.25
 630	60.16	36.719	3.7856	28.125	11.25	8.125
 631	7.0698	90.899	57.373	34.375	63.75	45
 632	79.721	9.527	45.163	41.875	9.375	18.75
 633	10.879	74.236	95.746	26.25	53.75	74.375
 634	64.217	22.086	74.373	29.375	15	38.75
 635	70.017	40.853	76.607	35.625	23.75	45
 636	4.7334	24.411	48.203	3.125	8.125	15
 637	50.973	26.358	13.005	18.75	6.875	5.625
 638	2.5724	55.065	90.994	13.125	33.75	60.625
 639	90.879	45.601	57.982	66.25	25	33.75
 640	68.145	79.947	44.862	55.625	49.375	36.25
 641	1.4829	67.595	54.158	19.375	35	30
 642	98.031	12.492	26.865	70.625	10	15.625
 643	76.47	93.209	18.886	74.375	66.875	36.875
 644	87.292	66.922	80.462	72.5	46.25	60
 645	10.233	96.829	47.233	40.625	70	43.125
 646	68.028	67.167	39.031	47.5	35.625	26.875
 647	45.312	94.998	9.2426	50	66.25	31.875
 648	77.97	53.709	40.015	51.25	25.625	23.75
 649	39.314	57.645	38.8	22.5	25	19.375
 650	57.297	82.865	67.439	48.75	57.5	50.625
 651	37.555	22.599	31.928	11.25	6.25	8.75
 652	92.35	23.597	40.911	61.25	13.125	20
 653	9.366	69.976	21.141	20	33.75	17.5
 654	51.187	19.14	23.012	18.125	5.625	7.5
 655	79.397	80.212	79.858	63.125	60	65
 656	95.392	55.226	12.927	78.125	27.5	20
 657	41.375	92.945	46.055	46.25	65	41.875
 658	45.146	82.618	89.901	41.25	61.25	73.75
 659	77.443	63.822	71.275	56.25	39.375	48.125
 660	53.973	31.254	55.289	23.125	13.125	23.125
 661	67.321	92.812	91.875	66.25	78.125	86.25
 662	39.436	37.141	40.709	15	12.5	14.375
 663	97.731	46.918	91.781	79.375	35.625	70
 664	40.993	6.1961	67.428	11.875	9.375	28.125
 665	79.123	80.606	57.718	68.125	55	45.625
 666	28.913	52.537	29.968	16.25	19.375	13.75
 667	14.658	37.254	73.035	7.5	16.875	35.625
 668	82.795	16.173	87.132	49.375	20.625	55.625
 669	8.3262	91.659	83.695	36.25	71.25	70
 670	45.527	77.031	49.285	36.875	45.625	33.75
 671	9.0854	40.031	62.08	7.5	16.875	26.25
 672	95.919	70.219	40.212	86.25	42.5	34.375
 673	42.67	92.336	77.786	47.5	71.875	64.375
 674	94.26	40.143	78.486	70.625	28.125	51.875
 675	65.647	53.082	89.436	40	35	61.875
 676	81.521	18.364	16.183	46.875	8.125	10
 677	8.4681	2.026	9.4857	1.25	0.625	1.875
 678	30.651	60.55	56.553	20.625	30	29.375
 679	53.483	73.043	73.646	38.75	47.5	50
 680	90.408	54.335	1.4985	69.375	25.625	18.125
 681	26.668	7.7075	63.496	6.25	7.5	23.75
 682	58.933	25.917	94.913	22.5	22.5	63.125
 683	9.8548	0.76371	72.617	1.875	9.375	31.25
 684	47.99	75.517	31.176	35.625	41.875	25
 685	48.087	9.0808	60.091	15.625	8.75	23.75
 686	10.988	21.876	19.614	3.125	4.375	4.375
 687	22.598	55.646	65.078	15.625	26.875	33.125
 688	9.0697	82.142	78.531	29.375	56.25	58.125
 689	90.301	42.459	39.12	65	20.625	22.5
 690	47.378	36.472	11.171	20	10.625	7.5
 691	49.382	1.8032	9.66	15.625	2.5	3.75
 692	1.9703	20.522	9.5307	1.875	3.125	2.5
 693	81.649	69.738	31.735	61.25	38.75	27.5
 694	34.53	73.626	67.13	30	44.375	43.125
 695	81.659	80.94	43.479	62.5	52.5	38.125
 696	10.291	63.628	90.197	30	41.25	61.875
 697	9.3825	51.554	18.669	10.625	18.125	10.625
 698	17.762	96.201	72.191	40.625	76.25	61.25
 699	67.56	52.693	6.6256	40.625	21.875	13.75
 700	45.853	7.7641	41.225	34.375	5.625	11.875
 701	10.95	73.197	73.054	22.5	43.75	48.125
 702	30.698	39.723	1.525	12.5	10.625	6.25
 703	81.002	52.333	91.825	56.875	37.5	66.875
 704	51.213	8.005	98.43	18.75	20	65
 705	5.4368	7.4372	80.307	2.5	11.25	39.375
 706	23.483	5.5586	76.358	4.375	10.625	35
 707	32.278	78.328	11.186	30	43.125	21.25
 708	4.5816	10.694	55.933	4.375	6.25	18.125
 709	89.829	62.524	36.614	71.25	34.375	28.125
 710	80.544	47.439	8.1742	53.125	19.375	15
 711	52.75	18.751	64.422	20.625	11.875	27.5
 712	62.358	2.6644	71.659	26.25	11.875	34.375
 713	64.674	45.928	67.561	35	24.375	36.875
 714	9.4766	33.184	90.141	6.25	20.625	53.125
 715	70.466	56.323	80.091	43.75	35	53.125
 716	57.237	71.111	99.776	41.875	54.375	81.875
 717	87.665	54.898	77.235	66.25	34.375	52.5
 718	16.33	71.595	0.85939	21.875	34.375	16.875
 719	35.3	79.117	32.908	33.125	44.375	26.25
 720	28.667	65.599	9.3944	22.5	29.375	14.375
 721	6.4435	54.089	70.225	12.5	26.25	37.5
 722	61.839	6.8281	38.81	25	5.625	12.5
 723	26.82	89.87	94.786	38.75	73.75	82.5
 724	5.7523	92.776	20.962	36.25	60.625	30.625
 725	75.073	63.309	7.8752	52.5	31.25	18.75
 726	61.102	20.846	50.693	26.25	9.375	19.375
 727	22.212	92.446	35.502	38.75	61.875	35
 728	92.086	35.29	8.3735	63.75	15	13.75
 729	6.1371	56.812	8.6847	12.5	20.625	10
 730	17.496	95.134	90.968	30	79.375	81.875
 731	97.652	22.856	91.04	73.75	25.625	63.125
 732	49.838	56.677	94.927	29.375	37.5	70
 733	52.347	66.189	89.979	34.375	45	66.25
 734	9.2025	61.07	60.052	15.625	29.375	31.875
 735	91.322	33.889	95.067	65	30	68.75
 736	35.535	50.421	47.701	18.125	20.625	21.25
 737	90.687	67.765	92.424	76.875	51.25	76.25
 738	23.14	27.979	7.2528	6.875	6.25	3.75
 739	74.571	37.346	94.34	43.125	29.375	66.25
 740	94.499	74.711	82.469	86.875	56.25	68.125
 741	43.662	60.242	6.7089	25	25	13.75
 742	94.229	53.959	43.646	73.75	28.75	29.375
 743	88.819	11.383	66.503	57.5	15	35
 744	32.047	21.909	62.334	30.625	10.625	24.375
 745	54.95	92.541	82.626	45.625	73.125	71.875
 746	71.956	56.212	58.905	51.875	30	33.75
 747	99.325	70.902	23.244	91.25	41.875	30
 748	90.147	23.875	23.537	60	11.25	13.75
 749	4.9251	37.67	45.258	24.375	12.5	15.625
 750	92.003	4.3641	46.508	60.625	10.625	21.875
 751	8.0287	68.481	36.597	18.75	33.125	21.875
 752	94.712	55.38	27.877	76.25	28.75	23.125
 753	59.036	41.793	22.693	28.75	14.375	11.875
 754	75.085	4.1457	81.543	38.125	16.25	46.875
 755	63.301	73.58	81.794	47.5	49.375	61.25
 756	87.889	97.159	72.707	95.625	81.875	70.625
 757	39.453	9.5152	91.318	11.875	16.875	53.75
 758	26.353	18.572	94.841	7.5	18.75	58.75
 759	19.325	8.4249	4.496	3.125	1.875	1.875
 760	14.945	80.063	53.214	28.125	48.125	36.25
 761	56.393	7.7606	18.733	21.25	4.375	5.625
 762	53.296	91.987	40.941	52.5	63.125	39.375
 763	91.714	5.4089	17.461	58.75	8.75	11.875
 764	35.214	69.883	47.511	26.875	36.875	28.75
 765	54.174	65.046	39.976	35	32.5	24.375
 766	0.48739	73.38	13.583	21.875	35.625	18.125
 767	45.038	24.464	90.44	16.25	20	54.375
 768	63.657	41.354	57.623	33.125	18.75	27.5
 769	60.349	99.318	73.525	64.375	83.75	68.75
 770	45.802	53.303	31.659	23.75	21.25	16.25
 771	66.01	80.362	74.383	53.75	56.25	57.5
 772	23.949	64.714	91.592	21.875	41.875	65.625
 773	74.347	9.4171	54.078	37.5	10	22.5
 774	92.529	91.743	63.785	95.625	73.125	59.375
 775	27.251	94.198	55.878	43.75	67.5	46.875
 776	35.57	11.733	10.395	9.375	2.5	3.125
 777	2.5649	51.038	46.451	10	20	19.375
 778	91.133	22.688	78.884	60.625	20.625	48.75
 779	9.3684	3.2632	25.712	1.875	1.875	4.375
 780	89.782	58.781	98.566	70	45	81.875
 781	91.178	92.619	40.078	96.25	69.375	45.625
 782	67.918	75.593	60.707	53.75	46.875	43.75
 783	21.214	7.6666	93.134	5	16.25	55.625
 784	16.312	15.496	27.702	3.125	3.75	5.625
 785	55.058	61.647	63.033	34.375	33.125	36.875
 786	64.827	43.743	39.237	34.375	18.125	18.75
 787	76.437	76.558	23.556	61.25	45	27.5
 788	23.505	31.715	37.321	8.125	8.75	11.25
 789	73.049	16.469	95.896	38.125	22.5	64.375
 790	86.35	91.415	7.6506	86.875	65	36.25
 791	75.383	18.628	65.782	40.625	13.75	31.25
 792	69.893	90.723	32.423	66.25	62.5	38.125
 793	48.41	50.555	75.728	40	27.5	44.375
 794	66.07	6.5086	22.487	28.75	5	8.125
 795	56.705	65.792	24.032	36.875	31.875	19.375
 796	76.562	34.662	51.314	43.75	16.25	25
 797	79.282	37.864	70.629	49.375	22.5	39.375
 798	61.86	83.501	85.092	53.75	63.125	68.75
 799	55.206	71.204	58.769	39.375	40.625	37.5
 800	41.161	67.679	77.016	29.375	40.625	50.625
 801	39.082	35.254	73.407	15	17.5	36.875
 802	54.232	98.131	91.703	60	87.5	85.625
 803	52.316	68.565	11.225	37.5	32.5	18.125
 804	13.126	31.651	17.948	5	7.5	5.625
 805	41.211	67.64	94.245	29.375	46.875	71.875
 806	6.2691	78.009	44.653	25.625	43.75	30
 807	18.472	48.506	58.249	11.875	20.625	26.25
 808	91.193	95.684	89.468	99.375	85	88.125
 809	90.576	89.753	96.277	91.25	79.375	94.375
 810	91.055	18.181	4.8873	60	9.375	11.25
 811	9.5158	57.466	44.934	13.75	24.375	21.25
 812	74.253	8.6243	35.462	36.875	6.875	13.75
 813	30.958	79.592	58.964	32.5	49.375	40
 814	64.297	44.2	12.447	33.75	15.625	11.25
 815	90.387	78.022	2.123	81.25	48.125	28.125
 816	38.276	57.67	62.47	23.125	28.75	33.125
 817	69.306	81.298	10.013	56.875	48.125	26.875
 818	11.786	56.194	98.458	21.875	37.5	71.25
 819	37.361	92.605	63.696	44.375	68.75	51.875
 820	99.099	26.774	11.31	73.75	13.125	15
 821	33.69	80.487	44.1	33.125	48.75	31.875
 822	58.378	47.696	96.771	31.875	33.75	69.375
 823	8.31	80.971	8.1118	27.5	45	21.875
 824	36.053	31.424	11.914	11.875	8.125	5.625
 825	23.96	74.365	97.709	26.875	54.375	79.375
 826	2.2643	18.895	91.763	11.875	17.5	52.5
 827	33.23	92.745	7.8538	41.875	61.25	30
 828	74.486	38.764	0.43818	41.875	13.75	10.625
 829	72.293	67.732	84.511	53.75	46.875	61.875
 830	71.349	55.278	23.75	44.375	24.375	17.5
 831	10.998	19.916	82.596	3.75	14.375	42.5
 832	1.5798	33.328	79.698	5	18.125	41.875
 833	61.955	8.9911	90.766	26.875	18.125	56.25
 834	44.195	40.277	31.491	18.125	13.75	11.875
 835	59.06	79.425	21.32	46.25	45.625	25.625
 836	9.8214	2.9467	42.842	1.875	3.75	10.625
END_DATA
