CTI3
DESCRIPTOR	"Calibration Target chart information 3"
ORIGINATOR	"ColorHug Factory"
DEVICE_CLASS	"DISPLAY"
COLOR_REP	"RGB_XYZ"
TARGET_INSTRUMENT	"ColorHug"
INSTRUMENT_TYPE_SPECTRAL	"NO"
LUMINANCE_XYZ_CDM2	"55.274963 36.518097 41.896820"
NORMALIZED_TO_Y_100	"YES"
NUMBER_OF_FIELDS	7
NUMBER_OF_SETS	836
BEGIN_DATA_FORMAT
 SAMPLE_ID	RGB_R	RGB_G	RGB_B	XYZ_X	XYZ_Y	XYZ_Z
END_DATA_FORMAT
BEGIN_DATA
 1	100	100	100	151.125	99.625	114.125
 2	100	100	100	151.375	99.5	114.5
 3	100	100	100	150.125	99.75	114.5
 4	100	100	100	151.125	100	114.5
 5	33.33	32.622	30.968	12.5	8	8.625
 6	100	0	100	95.875	27.625	80.75
 7	100	100	0	148.75	81.375	47.375
 8	0	100	100	52	90.25	100
 9	0	100	0	50.25	71.375	32.5
 10	0	0	100	2.25	18.125	66.875
 11	100	0	0	95.25	9.25	13.875
 12	0	0	0	0.125	0	0
 13	0	52.455	100	13.25	34.5	74.125
 14	100	0	50.3	94.625	13	27.375
 15	100	54.739	100	110.25	45.625	89.5
 16	100	52.128	0	106	25.25	21.375
 17	0	0	46.181	0.375	3	10.875
 18	0	51.141	0	10.875	15.25	7
 19	0	100	51.348	49.875	76.125	47
 20	100	100	52.037	150	85.625	62.25
 21	49.216	0	0	18.75	1.875	2.75
 22	56.159	100	0	75.375	73.625	36.25
 23	49.226	100	100	70.625	92.125	103.125
 24	44.487	0	100	16.875	19.75	69
 25	100	44.498	52.029	103.625	24.75	33.875
 26	48.926	48.544	100	30.25	33.875	76.125
 27	51.368	100	47.25	71	77.125	47.875
 28	49.893	0	49.033	19.875	5.375	15.625
 29	53.109	51.372	0	33.375	17.625	10.375
 30	0	58.587	53.943	15.125	24.875	25.25
 31	100	28.065	100	99.25	32.25	83.5
 32	0	0	72.874	1	8.25	30.25
 33	0	26.758	100	4.5	22.25	68.625
 34	0	25.426	0	2.5	3.5	1.625
 35	72.508	0	100	45.875	22.625	73.75
 36	100	27.395	0	97.5	13.25	15.75
 37	74.47	100	100	100.625	94	106.375
 38	100	0	25.728	94.75	10.125	17.125
 39	73.862	0	0	46.125	4.5	6.75
 40	100	100	25.402	148.875	82	50.25
 41	0	75.751	100	28.25	54.875	84.25
 42	0	75.172	0	25.625	36	16.5
 43	0	100	25.864	49.75	72.125	35.75
 44	100	0	74.801	95.125	18.125	46.75
 45	0	100	75.421	50.625	80.5	66.75
 46	24.577	0	0	4.375	0.375	0.625
 47	26.321	100	0	54.375	71.25	33.125
 48	100	75.835	0	123.625	46.5	31.25
 49	100	100	77.061	149.5	90.875	82.5
 50	71.263	100	0	93.125	75.5	39.25
 51	0	0	15.614	0.125	0.375	1.25
 52	0	30.049	70.936	4.25	12.75	30.75
 53	100	77.691	100	124.875	67.375	99
 54	24.486	100	100	56.5	90.75	100.5
 55	100	62.784	31.909	112.5	34.75	30.25
 56	29.552	0	100	8.25	18.875	68
 57	32.98	70.921	100	32.375	50.75	82.75
 58	0	27.681	40.241	3.25	6.375	10
 59	67.901	71.021	100	63.125	54.25	87.25
 60	28.154	100	67.829	55.5	79.25	59.75
 61	71.637	100	70.001	95.375	84	68
 62	58.822	58.763	53.586	42.5	27.625	28.875
 63	33.466	30.48	0	11.75	5.75	3.5
 64	100	73.795	71.277	122.625	52.5	59.75
 65	68.394	29.692	0	42	8.5	7.875
 66	70.399	0	29.039	41.25	5.25	10.25
 67	28.078	0	26.956	5.875	1.5	4.375
 68	28.532	72.339	0	29.25	33.5	16.125
 69	100	30.941	26.496	98.875	15.5	19.875
 70	34.597	0	73.611	9.625	9.375	32.625
 71	71.573	0	72.408	43.625	12.625	36.625
 72	0	71.029	29.412	22.75	33	19
 73	68.386	75.008	0	64.875	39.875	22.375
 74	68.088	27.309	100	43	26.375	74.375
 75	100	26.457	73.749	97.5	22	47.875
 76	74.344	100	27.392	98.375	77	43.625
 77	27.558	100	28.197	55.625	73.125	37.625
 78	31.196	27.465	100	11.75	23.25	69.75
 79	0	75.521	72.824	26.875	44.625	47.625
 80	0	50.93	25.553	10.75	16	10.25
 81	32.06	33.584	64.033	12.625	13.25	26.875
 82	81.666	55.38	0	71.5	24	17
 83	68.257	32.751	58.286	43.625	14.875	27
 84	0	55.248	81.585	13.875	29.125	48.75
 85	73.781	52.099	100	59	38.875	81.625
 86	100	50.537	82.952	106.5	35.875	63.5
 87	23.55	0	50.439	4.5	4	13.875
 88	31.335	62.746	31.114	24.5	26.25	16.875
 89	100	18.31	49.418	95.625	14.75	27.75
 90	26.498	48.404	0	14.75	14	7
 91	47.91	100	85.744	68.875	86.125	80.875
 92	71.829	47.313	31.811	52.75	18.625	17.5
 93	31.304	64.132	69.316	26	33.375	40
 94	80.403	0	54.321	55.875	9.875	24.125
 95	18.455	50.036	100	14.625	33.125	74
 96	50.653	100	16.345	69.375	73.5	37.125
 97	80.121	100	52.261	107.125	81.625	55.875
 98	0	22.54	19.289	2.125	3.25	3.25
 99	100	75.273	46.886	122.125	48.875	42.25
 100	0	78.618	56.625	28.75	44.875	35.75
 101	51.137	80.627	100	52.125	63	89.625
 102	48.446	0	17.864	18	2.25	4.375
 103	100	50.023	21.211	105.125	24.5	23
 104	50.115	20.118	0	21	4.125	3.875
 105	58.099	72.426	33.158	50.375	36.875	24.625
 106	19.364	100	50.197	52.5	75.875	46.625
 107	50.683	19.177	100	23.25	22.125	71.125
 108	53.37	0	81.576	23.625	13.25	44
 109	47.768	76.245	0	44	39.125	19.625
 110	0	18.927	55.503	1.875	6.5	17.25
 111	0	13.277	0	0.75	1	0.5
 112	72.862	72.473	75.625	69	46.625	55.625
 113	100	13.904	0	94.625	10.25	14.25
 114	86.349	0	100	67.625	24.875	76.875
 115	100	41.941	100	102.875	37.75	85.375
 116	100	81.785	16.464	127.25	53.625	35.75
 117	0	44.063	52.596	8.375	15.25	20
 118	0	0	58.917	0.625	5.125	18.75
 119	59.25	24.551	29.789	30.75	7.25	10
 120	82.73	82.874	100	94.25	69.875	97.25
 121	80.039	0	12.618	55.25	5.75	9
 122	60.957	47.729	77.817	40	26.125	46.875
 123	100	0	38.618	94.125	11.25	21.375
 124	0	40.09	100	8.25	27.5	71
 125	0	15.283	82.322	2	12.5	41.25
 126	17.592	81.726	100	35.125	62.5	87.625
 127	100	14.13	100	96.25	28.625	81.75
 128	15.261	100	82.059	52.125	82.75	74.125
 129	47.77	79.418	60.389	47	48	41.25
 130	18.768	16.429	0	3.625	1.75	1.125
 131	55.634	100	65.763	74.375	80.75	61.125
 132	100	100	38.541	147.75	82.875	55
 133	17.421	0	83.497	3.375	11.75	42.75
 134	17.237	16.758	100	5.125	20	67.875
 135	0	15.067	30.039	1.125	2.5	5
 136	0	0	86.505	1.5	12.5	46.125
 137	75.736	72.799	50.02	73.375	41.75	36
 138	100	83.323	85.529	129.75	68	81.625
 139	100	100	64.894	147.875	87.25	70.875
 140	81.98	84.914	0	93.625	53.125	30.625
 141	0	63.757	15.49	17.625	24.875	12.625
 142	49.514	66.135	100	39.875	47.125	82.625
 143	100	0	61.862	94.375	15	35
 144	24.308	45.41	49.831	12.875	15.875	19.375
 145	15.963	0	17.047	2	0.625	1.875
 146	87.497	100	100	121.25	96.375	110
 147	52.099	25.003	75.752	24.375	14.625	38.75
 148	14.909	81.162	0	32	43.25	20
 149	0	34.792	14.626	4.875	7	4.25
 150	48.39	45.075	22.552	26.375	14.125	10.5
 151	83.545	65.965	100	82.125	51.375	87.875
 152	16.226	62.345	0	18.625	23.5	11.125
 153	63.222	0	14.914	32.25	3.625	6
 154	80.449	13.446	0	55.875	6.625	8.75
 155	83.917	41.562	0	67.875	15.75	13.5
 156	100	60.448	46.3	111.125	34.625	35.5
 157	15.584	0	34.795	2	1.875	6.25
 158	17.144	65.121	100	22.625	45.25	80
 159	83.602	55.334	62.667	74.75	30.375	39.625
 160	0	82.19	14.22	31.375	44.625	21.5
 161	25.132	74.856	50.616	30.25	39.75	30.75
 162	0	13.769	100	2.5	19.375	67.75
 163	87.181	0	0	67	6.625	9.875
 164	0	100	39.19	49.25	73.125	40.25
 165	78.047	65.914	19.865	71.875	32.625	22.125
 166	100	63.961	15.865	112.375	34.75	27
 167	100	45.955	36.032	103.125	23.375	26.125
 168	15.926	100	16.89	50.875	71.5	34.25
 169	41.459	100	0	62.25	72.625	34.375
 170	48.707	37.288	48.139	24.25	13.125	18.625
 171	83.381	100	13.285	111.75	77.625	42.75
 172	78.129	25.303	75.621	55.375	18	43.25
 173	12.396	0	0	1.25	0.125	0.25
 174	37.607	48.336	83.346	21.25	26.375	50.25
 175	35.588	15.356	0	10.125	2.375	2.125
 176	61.245	100	100	82.125	92.875	104.375
 177	100	67.29	87.195	115.5	50.25	74.875
 178	0	0	30.615	0.25	1.25	4.625
 179	35.187	81.789	83.323	40.75	56.75	64.375
 180	39.525	80.194	22.879	40.875	43.625	23.5
 181	50.634	34.593	0	24.75	8.625	6
 182	14.175	100	63.146	51	76.875	55.5
 183	83.493	17.728	34.574	61.75	9.375	15.75
 184	23.463	22.014	79.943	6.875	13.625	40.25
 185	18.066	31.847	0	6.5	5.75	3
 186	87.201	100	81.361	119.375	88.75	83.25
 187	0	100	87.95	50.25	84.875	81.25
 188	34.476	17.888	46.22	10.125	5.75	13.125
 189	18.277	0	67.39	3.125	7.125	25.875
 190	100	87.972	0	133.5	61.875	38.125
 191	82.925	34.85	100	66.25	31.25	79.25
 192	0	88.016	100	38.375	70.25	91.25
 193	36.104	85.655	100	45.625	68.75	91.75
 194	60.981	0	0	29.25	3	4.375
 195	51.466	61.826	78.106	38	35.25	50.375
 196	78.427	31.983	22.175	56.125	11.5	12.875
 197	66.017	44.321	0	43.5	14.875	10.5
 198	83.941	0	84.177	62.5	18	52.625
 199	20.158	46.612	23.269	11.75	13.5	8.875
 200	0	100	62.618	49.5	77	54.125
 201	33.832	0	13.933	8.25	1.125	2.375
 202	100	17.286	16.322	94	11.25	15.875
 203	0	42.204	83.926	8.375	22	48.375
 204	0	87.774	0	36.125	51	23.625
 205	64.988	0	59.017	34.5	8.625	24.125
 206	14.677	0	100	3.375	18.375	67.75
 207	88.934	82.673	35.021	101.625	53.125	37.25
 208	0	63.778	100	19.375	43.25	78.875
 209	83.429	17.674	100	62.75	26.125	77
 210	30.899	100	85.668	57.5	84.625	79.875
 211	83.68	0	41.016	61	8.5	17.625
 212	100	63.515	0	112	33.75	25.125
 213	85.074	69.987	0	85.5	37	23.5
 214	20.801	45.524	69.018	12.375	19.75	33.125
 215	21.382	82.482	73.017	35.75	53.625	52.625
 216	100	15.128	64.249	94.125	16.75	37.625
 217	36.522	0	58.427	10.25	6	19.875
 218	22.466	81.296	33.007	34.5	45.125	26
 219	62.531	87.152	0	67.5	53.75	28.125
 220	84.12	85.397	67.886	97.625	61.875	58.25
 221	18.87	27.336	45.389	5.875	7.25	13
 222	66.439	100	14.444	86.25	75.125	39
 223	41.636	22.147	19.003	15	4.5	5.125
 224	61.271	100	81.94	80.75	85.75	78.5
 225	86.013	100	0	116.875	77.875	42.5
 226	37.57	0	0	10.125	1	1.5
 227	100	16.132	84.102	94.625	22.625	58.125
 228	0	100	13.619	48.625	71.125	33.375
 229	38.905	100	56.471	60.75	76.75	51.375
 230	100	15.382	34.563	94.125	12.25	20.375
 231	36.656	14.908	100	12.5	20.625	69.25
 232	0	62.593	66.608	17.5	30.5	35.875
 233	66.347	12.528	100	38	22.75	72.875
 234	100	43.375	69.233	101.125	27.625	46.5
 235	100	56.36	61.236	106.875	33.75	43.625
 236	0	86.194	44.955	35	52	33.375
 237	64.527	87.262	100	71.125	72.625	95.75
 238	34.411	0	42.471	8.75	3.375	10.5
 239	80.23	59.707	85.12	71.5	39.5	63.125
 240	20.625	19.056	14.791	4.625	2.625	2.625
 241	15.341	34.221	100	8.25	25.125	70.375
 242	36.777	0	87.905	11	14.125	50.25
 243	34.598	56.247	100	24	38.375	77.625
 244	20.86	67.629	17.418	23.25	28.75	15
 245	44.958	60.843	18.054	31.25	24.375	14.25
 246	37.421	60.193	0	25.875	22.625	11.625
 247	84.011	33.849	42.612	65.875	15.125	21.5
 248	17.241	60.339	37.743	17.875	24	17.75
 249	50.65	17.261	53.278	21.5	7.875	19
 250	45.505	48.926	65.152	26.375	22.125	32.75
 251	44.567	84.081	39.649	48	50.625	31.875
 252	100	86.339	72.054	131.875	67.375	67.75
 253	68.14	61.135	0	54.125	26.25	16
 254	17.93	66.986	81.403	22.875	38.875	53.125
 255	39.242	60.215	48.926	27.625	26.625	24.375
 256	20.099	18.77	62.967	5	8.25	23.375
 257	34.553	100	14.582	57.75	72.25	34.75
 258	87.345	0	66.694	67.125	13.625	35.25
 259	0	43.714	39.842	8	13.125	13.25
 260	100	37.705	13.955	98.75	17.625	18.5
 261	31.265	86.993	0	42.125	51.25	24.125
 262	51.402	82.661	81.338	52.625	57.5	64.25
 263	100	100	12.984	145.875	81.25	47.625
 264	0	37.859	0	5.75	8	3.75
 265	62.092	58.215	100	46.5	41.875	81.375
 266	86.186	100	64.1	116.625	84.625	66.25
 267	100	35.251	85.898	98.875	28.875	62.875
 268	63.182	89.992	41.974	71.25	60.625	39.25
 269	13.504	100	0	50.375	71	32.625
 270	100	0	13.228	92.625	9.375	14.625
 271	63.881	40.826	100	41.125	31.5	76.875
 272	69.387	84.838	20.792	73.375	52	29.875
 273	0	70.279	45.136	22.125	33.875	25.125
 274	79.094	64.754	40.908	71.125	33.375	28.375
 275	62.385	54.099	17.396	43.375	20.625	14.125
 276	64.408	14.621	0	34	4.625	5.5
 277	70.028	15.606	44.651	41.125	8.25	16.875
 278	0	63.544	0	17.25	24.375	11.375
 279	83.475	47.274	20.502	69	19.5	17
 280	55.866	0	32.671	24.75	3.875	9
 281	58.007	0	100	28	20.875	71.375
 282	100	0	87.698	93.5	22.375	62.25
 283	0	13.792	67.215	1.5	8.125	26
 284	84.123	17.001	58.549	62.25	12.875	28.625
 285	59.579	32.873	15.966	32	9.125	8.25
 286	10.41	32.998	28.659	5.375	7.25	7.125
 287	17.231	40.031	85.65	9.875	21.875	49.875
 288	37.568	41.561	10.108	17.125	10.75	6.625
 289	0	69.015	85.092	21.875	41.875	58.25
 290	14.442	100	36.187	51	73.25	39.375
 291	100	40.549	0	99.875	18.625	18
 292	82.143	45.435	78.429	67	27.875	50.75
 293	52.674	0	67.3	22.25	9.25	28.75
 294	0	87.868	66.793	37	59	49.75
 295	86.53	100	40.524	116.375	80.5	50.875
 296	71.777	85.586	67.232	78.375	60.125	54.75
 297	43.216	100	31.671	63.25	74.25	39.75
 298	39.245	32.908	85.845	16.875	19.625	49.875
 299	0	45.662	67.543	9.25	19.375	31.75
 300	12.161	100	100	51.5	89.375	100.5
 301	67.049	0	85.516	37.125	16	50.875
 302	100	89.041	100	135.875	82.25	106.75
 303	20.246	60.698	56.526	19.125	27.25	28.25
 304	52.177	55.457	40.416	34.5	22.75	20.125
 305	72.617	87.018	83.932	80.5	67.25	73.875
 306	40.512	16.723	66.475	14	9.625	27.5
 307	68.507	49.232	50.605	48.125	21.75	26.125
 308	65.622	100	54.525	84.875	79.5	54.375
 309	54.115	37.24	66.394	28.625	16.875	32
 310	100	76.138	31.267	121	48	36.125
 311	54.728	65.623	0	41.75	28.625	15.625
 312	63.126	12.526	64.37	33	10.5	28.625
 313	72.827	18.08	23.704	45.125	7	10.125
 314	23.268	15.278	34.947	5.125	3.375	7.375
 315	87.648	68.954	59.645	89.375	41.625	43.875
 316	0	85.595	85.198	35.375	61.375	68
 317	35.798	84.371	69.21	43.25	55.375	50.875
 318	36.062	47.494	35.919	18.875	15.875	14
 319	86.083	36.277	59.152	69.625	19.25	32.25
 320	58.21	100	30.361	76.375	75.125	41.125
 321	46.745	14.614	32.317	17.5	4.375	8.25
 322	81.573	73.869	86.954	83.375	53.125	71.625
 323	85.991	49.387	48.206	75.125	23.875	28.375
 324	28.062	87.906	19.654	41.875	52.125	26.625
 325	68.992	17.993	85.124	41.125	18	51.375
 326	100	66.147	100	114.625	54.875	93.5
 327	33.358	64.806	84.517	27.625	38.5	57.375
 328	41.351	17.736	80.522	14.875	13.875	42.125
 329	100	100	88.719	146.125	93.5	96.625
 330	66.336	0	44.32	35.5	6.5	15.625
 331	64.85	67.09	12.293	53.75	31.5	18.625
 332	15.262	31.268	63.277	6.125	11.625	25.125
 333	15.008	43.663	37.3	9.625	13	12.5
 334	0	57.895	38.078	14.25	21.875	16.625
 335	66.599	58.458	67.871	50.75	31.5	41.125
 336	59.191	18.651	15.215	28.75	5.125	6.25
 337	66.781	31.14	84.629	41.125	21.125	51.875
 338	88.033	85.158	52.14	103.875	59.375	47.125
 339	36.882	100	100	60.875	90.75	101.625
 340	26.102	33.094	17.006	9.125	6.875	5.125
 341	56.309	36.861	35.862	30.125	11.75	13.75
 342	45.839	65.587	67.033	35	35.125	39.875
 343	83.709	81.172	16.406	91.5	49.375	30.25
 344	0	48.132	13.005	9.375	13.5	7.125
 345	87.176	50.021	100	79	39.875	84.25
 346	51.219	84.244	13.73	52.5	48.625	25.5
 347	60.606	71.415	48.406	52	38.625	31.875
 348	0	11.359	12.718	0.625	1	1.375
 349	86.429	49.705	33.145	75.375	22.375	22
 350	34.056	40.958	100	16.875	28.875	73.25
 351	100	30.557	59.628	96.5	19.875	36
 352	88.497	26.902	13.449	71.625	11.125	13
 353	14.167	51.98	88.218	14	29.25	56.625
 354	13.784	12.983	49.37	2.625	4.75	13.5
 355	15.018	88.441	48.062	38.625	55.875	36.75
 356	87.79	25.769	89.215	70.625	24.125	62
 357	0	33.206	55.865	4.75	10.75	19.75
 358	74.324	76.029	35.536	72.125	43.125	30.25
 359	65.863	57.223	42.324	48.875	25.5	23.375
 360	30.893	54.646	13.136	19.375	18.625	10.25
 361	0	34.36	28.321	4.75	7.625	7
 362	15.443	77.087	85.116	29.875	50.5	63.375
 363	63.381	68.947	68.521	53.125	39.875	45.375
 364	69.733	27.566	42.917	42.625	10.75	17.375
 365	32.754	100	42.76	56.625	74.125	43.25
 366	47.096	29.481	34.829	20.5	8.125	10.75
 367	8.5451	71.948	62.695	24.25	38.75	36.875
 368	0	86.048	29.3	34.5	50.375	27
 369	53.697	51.572	85.367	34.25	30.25	55.375
 370	17.608	56.69	12.515	15.625	19.5	10
 371	90.638	14.414	49.227	73.5	12	24.25
 372	63.248	63.64	89.55	50.375	42.125	67.125
 373	100	85.976	58.455	129.5	63.875	56
 374	9.8311	28.027	7.5567	4	4.5	2.625
 375	89.831	64.313	69.506	90.625	40.125	50.375
 376	31.754	12.995	25.543	7.875	2.75	4.875
 377	75.914	45.966	64.957	57	23.625	36.75
 378	7.5735	50.695	58.941	11.625	20.375	26.25
 379	100	69.835	58.912	115.75	45.125	47.375
 380	32.211	34.376	48.339	12.5	10.75	16.625
 381	13.901	12.159	73.555	3	9.625	32.125
 382	87.071	9.028	77.653	67.5	17.125	46.5
 383	23.272	85.409	84.29	38.875	61.125	67
 384	93.289	39.48	26.145	83.875	17.375	18.875
 385	65.769	59.63	30.967	49.75	26.375	19.875
 386	100	32.265	41.803	96.375	17.625	25.5
 387	86.568	85.281	86.961	101.375	68.375	79.75
 388	52.577	86.83	30.016	56.5	53.125	30.875
 389	47.921	40.199	76.902	25.125	20.75	42.625
 390	22.36	86.619	61.58	39.125	55.875	44.75
 391	52.232	33.601	88.787	27	22	56
 392	0	28.523	86.267	4.375	17	48.125
 393	43.497	67.879	39.551	34.375	32.375	23.375
 394	39.877	45.261	0	20	12.875	7.25
 395	86.94	12.43	24.699	66.25	8.375	13.25
 396	28.363	55.339	90.398	20	33.125	61.75
 397	39.018	70.534	57.879	33.5	37.125	34.5
 398	12.833	28.519	78.828	5.375	14.75	39.875
 399	68.35	31.815	69.975	42.75	17.25	36.5
 400	56.52	26.226	41.626	27.875	8.75	14.5
 401	12.938	46.218	0	9.75	12.25	5.875
 402	8.6938	60.179	26.117	16.125	22.75	13.5
 403	51.995	89.429	96.608	60	72.875	90
 404	46.905	47.746	48.909	26.125	18.25	21.375
 405	14.352	81.814	19.479	32.25	44.125	22.125
 406	71.482	38.117	12.273	47.875	12.625	10.875
 407	86.616	60.785	10.012	81.25	29	20.5
 408	71.811	88.979	52.186	80.625	61.75	45.75
 409	43.213	100	72.083	63.875	81.25	65.25
 410	73.92	23.444	8.2853	47	7.625	8.5
 411	40.629	85.534	53.423	46.375	53.875	39.5
 412	38.955	52.128	22.885	22.375	17.625	11.625
 413	46.48	12.229	8.6707	16.75	2.75	3.375
 414	40.855	33.301	22.309	16.75	8	7.125
 415	76.365	66.787	61.06	68.375	38.375	40.625
 416	7.5076	12.025	20.59	1.375	1.5	2.75
 417	85.93	27.031	0	66.875	10.25	11.25
 418	100	87.757	44.06	129.75	64	48
 419	41.543	25.624	54.896	15.625	9.375	19.75
 420	59.533	76.669	91.789	55.875	55	76.25
 421	58.226	12.079	28.862	27.125	4.75	8.5
 422	50.514	8.8602	88.281	21	16	52.5
 423	41.983	0	31.301	13.25	2.625	6.875
 424	28.024	36.455	77.877	11.625	17.875	40.375
 425	12.718	41.027	11.129	8	9.75	5.375
 426	26.194	75.573	88.088	31.875	49.875	66.75
 427	28.936	71.474	37.671	28.875	34.75	23.125
 428	90.497	74.77	26.512	98.25	43.5	30.5
 429	17.514	75.984	41.507	28.375	39.5	26.25
 430	16.621	64.069	68.891	20.5	32.75	39
 431	12.42	21.661	36.669	3.375	4.625	8.25
 432	52.915	46.814	10.465	30.25	15	9.75
 433	56.979	91.194	52.49	64.75	63.5	44.625
 434	25.14	52.299	42.419	16.125	19.125	17.5
 435	25.587	6.8296	13.004	5	1.125	1.875
 436	55.018	14.818	41.328	24.5	6.125	13
 437	93.397	56.942	87.959	93.75	40.875	69.625
 438	28.374	12.057	85.683	7.625	13.875	47
 439	78.265	6.7088	92.468	52.5	20.5	62.5
 440	39.694	71.314	6.3658	33.875	33	16.625
 441	73.259	45.059	87.294	53	29.125	59.875
 442	26.381	57.692	76.454	20.125	29.875	44.875
 443	66.587	33.629	31.299	39.875	11.125	13
 444	88.523	74.434	46.718	93.875	45.125	38.25
 445	76.836	59.92	49.912	64.5	30.125	30.625
 446	33.152	90.418	31.148	46.375	57.125	31.5
 447	55.924	53.388	68.505	36.75	26.625	38.375
 448	77.248	91.798	41.448	90.875	65.25	43
 449	26.737	89.225	45.445	42.75	56.75	36
 450	87.642	100	25.942	118	78.875	46.125
 451	68.631	100	40.532	88.5	77.75	47
 452	14.485	50.449	49.078	12.25	18.5	20
 453	10.654	10.664	89.702	2.75	14.625	51
 454	31.962	49.108	62.92	17.75	21	29.875
 455	8.6779	22.468	68.278	3.375	10.125	28
 456	74.727	90.586	6.3447	85.75	60	32.625
 457	0	12.136	44.106	1	3.625	10.5
 458	43.35	78.123	73.61	42.25	49.75	51.875
 459	10.925	11.786	9.5801	1.625	1.125	1.25
 460	15.591	37.386	50.832	7.75	11.875	17.625
 461	10.685	68.959	9.3113	21.625	29.5	14.25
 462	92.017	72.247	12.692	99.25	40.625	27.375
 463	89.839	77.431	73.4	100.25	54.25	60.375
 464	47.45	74.511	18.753	41.375	37.625	20.625
 465	50.097	90.816	69.461	58.625	65.375	56.5
 466	82.755	34.052	82.994	64.375	24	54.5
 467	46.786	72.919	85.794	41.125	47.75	63.75
 468	9.3304	90.457	73.518	39.875	64.125	57.5
 469	88.59	61.902	22.128	85.375	30.5	23.25
 470	100	61.262	74.222	109.75	40.75	57.375
 471	86.777	8.8992	8.4672	66.125	7.25	10.375
 472	39.582	85.966	11.798	45.625	50.5	25.125
 473	85.958	0	24.986	63.875	7.375	12.625
 474	80.299	22.552	47.163	56.625	11.5	21.25
 475	7.218	45.128	76.547	9.75	21.5	40.75
 476	55.989	48.521	58.428	34.25	21.125	28.625
 477	50.728	10.774	73.284	21	11.25	34.625
 478	71.269	10.344	11.008	41.75	5.125	7.25
 479	91.768	45.194	10.385	83	19.5	17.125
 480	7.8976	42.553	25.13	8	11.25	8.125
 481	54.269	55.846	25.175	35.5	21.5	15.125
 482	41.937	24.646	5.4249	15.125	4.625	3.75
 483	89.502	33.423	70.991	75.25	21.5	42.875
 484	75.301	54.745	14.159	59.875	22.75	16.25
 485	76.653	6.2202	65.75	49.125	11.875	32
 486	58.072	77.769	7.4688	53.625	41.625	22.25
 487	27.429	73.801	76.267	30.5	44.5	51.375
 488	39.961	56.279	74.128	25.75	28.875	43.25
 489	23.43	28.561	70.622	7.875	12.75	31.625
 490	91.285	49.258	68.377	83.5	29	44.25
 491	95.591	89.122	11.382	121.625	61.625	37.75
 492	28.451	92.151	76.841	46.125	68	62.625
 493	26.242	26.08	53.808	7.875	8.5	18
 494	15.957	92.746	24.983	42.25	60	30.25
 495	13.563	9.1545	61.533	2.375	6.375	21.25
 496	13.216	24.593	54.939	4.125	7.875	18.125
 497	91.885	89.769	79.537	115.125	72.375	74.5
 498	100	88.684	29.334	131.625	63.25	42.75
 499	34.09	65.771	20.136	27	27.875	15.5
 500	20.961	77.373	9.9329	30	38.5	18.75
 501	48.985	66.059	50.556	37.25	32.375	28.625
 502	92.409	9.0241	90.897	77.125	22.5	64.125
 503	40.34	11.09	52.408	12.75	6	16.875
 504	41.367	58.198	88.277	28.25	35	61
 505	72.147	77.604	91.982	71.25	57.75	79.125
 506	12.761	67.714	50.147	21.5	32	26.625
 507	76.617	25.882	91.445	52.5	23.25	63.375
 508	92.734	34.742	50.285	81.5	18.125	28
 509	16.114	24.64	92.845	5.75	18.625	57.875
 510	22.589	72.255	61.762	27.25	39	37
 511	79.742	58.911	30.09	69.125	27.625	22.125
 512	75	100	87.265	97.875	88.375	87.5
 513	22.068	58.052	24.509	17.875	21.375	12.875
 514	29.302	20.341	8.3315	7.625	3	2.5
 515	75.009	40.707	41.951	53.5	16.625	20.5
 516	76.599	13.357	74.764	49.875	15.125	41
 517	10.272	88.11	94.612	38.5	68.5	83.125
 518	34.093	23.728	89.777	11.75	17.75	53.875
 519	29.867	13.694	72.95	8	10.25	32.75
 520	64.983	91.01	77.614	73.5	69.625	67.5
 521	66.135	26.77	20.928	37.5	8.125	9.25
 522	36.207	25.309	75.344	12.875	13.75	37.125
 523	78.931	73.018	10.687	76.5	39	23.875
 524	30.391	22.415	20.277	8.625	4.125	4.375
 525	11.242	82.956	64.472	33	51.5	44.5
 526	80.459	87.628	28.607	92.375	58.25	36
 527	27.707	31.87	88.315	10.625	19.625	53.125
 528	62.06	36.458	46.606	35.875	13.625	19.5
 529	29.542	11.104	53.546	7.25	5.75	16.75
 530	68.762	19.114	33.778	39.375	7.5	12.5
 531	59.637	48.524	31.174	37.375	17.625	15.375
 532	48.298	33.52	100	23.875	26.625	73.5
 533	45.598	28.163	66.475	19.375	12.875	29.5
 534	29.918	44.928	90.506	15.875	26.5	58.75
 535	78.316	92.636	77.206	94.25	74.25	70.625
 536	91.281	57.367	55.776	88	31.875	37.375
 537	21.692	25.08	26.495	6	4.75	5.625
 538	74.304	63.813	94.636	64.125	45.625	77.375
 539	88.481	29.745	32.468	71.375	13	17.5
 540	59.486	41.236	87.042	35.75	25.75	55.875
 541	92.045	78.449	60.137	104.125	52.625	50.25
 542	61.977	24.673	6.6648	32.375	6.375	6.375
 543	40.162	92.786	90.522	53.125	73.625	80.875
 544	36.748	77.066	93.097	37.625	54.25	75.375
 545	20.161	69.446	29.15	24.125	31.25	18.5
 546	47.187	88.771	0	53	54.875	26.75
 547	44.188	43.219	90.474	23.375	26.5	59.375
 548	8.9634	92.695	8.7975	41.125	58.875	27.5
 549	32.387	45.286	72.51	16.5	21	37.375
 550	48.879	44.876	39.601	26.375	15.625	16
 551	61.287	11.463	77.817	31.125	13.875	41.25
 552	25.396	43.768	11.365	12.125	11.5	6.5
 553	76.983	53.137	73.131	62.125	30.25	46.625
 554	43.083	65.437	28.359	32.125	28.375	18
 555	11.708	51.209	32.796	11.875	16.875	12.625
 556	71.238	41.136	23.296	48	14.5	13.25
 557	21.758	7.4731	22.877	3.875	1.5	3.5
 558	23.721	37.471	27.997	9.5	9.25	8.125
 559	10.847	0	52.434	1.375	4.125	14.75
 560	52.184	32.794	25.185	25.125	8.875	9.125
 561	25.164	57.264	2.5113	18.375	20.25	9.875
 562	25.531	62.973	45.088	22	27.375	22.375
 563	59.406	92.015	9.9812	67.875	61	31.25
 564	9.0031	43.883	94.414	9.875	26.75	63.5
 565	29.38	24.618	40.51	8.625	6.25	10.875
 566	56.497	10.252	5.6832	25.25	3.375	4.375
 567	70.521	20.255	56.201	41.625	11	24.375
 568	81.365	40.212	31.436	62.5	16.125	17.625
 569	56.55	19.28	86.012	27.5	17.25	51
 570	25.096	37.115	57.433	10.25	13.125	22.25
 571	87.229	43.818	88.57	74.75	31	64.5
 572	9.0945	89.498	36.178	38.125	56.5	31.875
 573	60.107	91.337	22.013	67.5	59.875	32.625
 574	43.216	91.406	24.486	53.125	59	31.125
 575	55.315	58.321	10.243	37.625	22.625	13.5
 576	63.269	92.59	62.685	73.5	68.5	53.75
 577	20.915	89.348	8.0709	40	53.625	25.375
 578	33.841	42.636	23.687	15.5	11.875	8.875
 579	82.32	36.054	11.955	61.625	13.125	12.625
 580	78.197	45.345	53.373	60.375	21.125	28.625
 581	87.492	64.105	49.348	85.375	35.375	34.375
 582	80.208	74.738	68.707	80.125	48.375	51.5
 583	12.847	33.194	39.194	5.875	8.25	10.75
 584	15.215	55.484	78.368	15.375	28.375	45.875
 585	25.437	6.1049	39.533	5	3	8.75
 586	57.87	49.584	46.944	36.125	20.125	22.125
 587	67.62	65.849	53.975	55.75	34.375	33.5
 588	26.643	41.991	38.871	12.25	12.75	13.25
 589	42.8	8.7865	22.456	14	2.625	4.875
 590	57.049	35.385	77.322	31.125	19.5	43.25
 591	36.112	43.832	54.787	17.5	16.375	22.875
 592	62.719	62.395	77.348	48.375	36.75	51.5
 593	60.706	81.416	54.884	59.5	50.625	40.375
 594	90.695	4.9508	56.719	72.625	12.375	28.5
 595	43.936	24.373	43.898	17	7.5	13.75
 596	4.3825	24.21	30.612	2.75	4.625	6.25
 597	53.911	79.942	42.742	51.375	46	31.875
 598	90.172	22.149	68.288	73.25	17.25	38.875
 599	77.586	29.345	63	53.625	15.875	32
 600	60.572	25.668	63.187	31.875	12.75	28.625
 601	97.729	10.927	74.359	87	18.375	46
 602	57.769	8.0576	53.146	26.625	7.375	19.5
 603	77.517	92.691	61.488	92	69.625	56
 604	44.198	38.831	60.002	21	15.625	26.375
 605	65.034	81.736	33.44	64	48.625	30.875
 606	67.829	69.791	24.123	58	34.375	22.25
 607	25.001	99.668	13.437	52.125	71.25	33.625
 608	89.683	25.837	56.548	73	15.5	29.75
 609	41.656	51.246	11.867	23.5	16.75	9.75
 610	23.72	38.131	96.84	11.25	25.625	66.375
 611	78.049	6.5915	25.803	50.75	6.5	11
 612	46.116	56.291	55.29	29.375	25.125	27.625
 613	92.023	9.1483	37.844	74.5	10	18.75
 614	91.068	89.904	23.497	112.875	63	39
 615	76.477	27.045	32.402	50.875	10.25	14.375
 616	42.661	5.2197	80.136	14.5	12.25	41.375
 617	6.2584	65.435	77.208	19.625	35.75	47.75
 618	89.71	95.846	52.578	116.625	75.25	55.5
 619	88.397	77.149	94.397	96	61.125	86.25
 620	78.888	91.034	93.609	92.75	77	91.125
 621	47.82	92.501	59	57.625	65.125	48.875
 622	23.826	47.444	80.539	14	24.125	46.375
 623	9.0413	12.29	37.978	1.625	3	7.875
 624	23.331	16.308	46.267	5.375	5	12.5
 625	35.756	10.704	35.9	9.875	3.5	8.25
 626	2.9969	77.21	88.879	28	51.625	68
 627	28.436	75.743	23.117	31.375	37.625	20.375
 628	9.0221	78.989	30.58	28.875	41.25	23.25
 629	8.803	17.371	0.30943	2	1.75	1
 630	60.16	36.719	3.7856	33.375	10.375	7.875
 631	7.0698	90.899	57.373	39.75	60.875	44.125
 632	79.721	9.527	45.163	53.875	9	19.125
 633	10.879	74.236	95.746	26.875	51.75	77
 634	64.217	22.086	74.373	35	14.875	39
 635	70.017	40.853	76.607	47	23.25	45.625
 636	4.7334	24.411	48.203	3.125	6.75	13.875
 637	50.973	26.358	13.005	22.25	6.125	5.75
 638	2.5724	55.065	90.994	14	32.625	61.625
 639	90.879	45.601	57.982	80.5	24.375	34.875
 640	68.145	79.947	44.862	66.375	47.875	35.25
 641	1.4829	67.595	54.158	20.375	32.75	29.25
 642	98.031	12.492	26.865	86.375	10.5	16.875
 643	76.47	93.209	18.886	90.375	64.625	36.375
 644	87.292	66.922	80.462	86.75	44.875	62.25
 645	10.233	96.829	47.233	46	68.75	42
 646	68.028	67.167	39.031	56.75	33.75	26.25
 647	45.312	94.998	9.2426	58	63.875	31.5
 648	77.97	53.709	40.015	62.5	24.25	23.625
 649	39.314	57.645	38.8	25.375	23	18.625
 650	57.297	82.865	67.439	57.625	54.875	50.375
 651	37.555	22.599	31.928	12.25	5.25	8
 652	92.35	23.597	40.911	77.25	13.125	21.375
 653	9.366	69.976	21.141	22.125	31.125	16.375
 654	51.187	19.14	23.012	21.25	4.75	6.625
 655	79.397	80.212	79.858	83.25	57.625	66.25
 656	95.392	55.226	12.927	94.5	26.125	21.375
 657	41.375	92.945	46.055	53.125	63.625	40.25
 658	45.146	82.618	89.901	47.375	60.375	74.75
 659	77.443	63.822	71.275	68	38	48.625
 660	53.973	31.254	55.289	26.5	12.125	22.375
 661	67.321	92.812	91.875	78.375	76.875	87.125
 662	39.436	37.141	40.709	16.875	11.125	13.75
 663	97.731	46.918	91.781	96.5	36.375	73.75
 664	40.993	6.1961	67.428	13.125	8.625	27.875
 665	79.123	80.606	57.718	82.625	52.375	45.625
 666	28.913	52.537	29.968	17.25	17.875	12.875
 667	14.658	37.254	73.035	7.875	16.5	35.375
 668	82.795	16.173	87.132	60.125	20.5	57.25
 669	8.3262	91.659	83.695	40.75	68.25	69.75
 670	45.527	77.031	49.285	42.125	42.875	32.75
 671	9.0854	40.031	62.08	7.75	15.125	25.875
 672	95.919	70.219	40.212	104.5	41.375	34.875
 673	42.67	92.336	77.786	53.75	69.375	65.5
 674	94.26	40.143	78.486	86.25	27.375	53.875
 675	65.647	53.082	89.436	47.125	34	64.25
 676	81.521	18.364	16.183	56.5	7.875	10.5
 677	8.4681	2.026	9.4857	0.875	0.375	0.875
 678	30.651	60.55	56.553	22.625	27.5	28.625
 679	53.483	73.043	73.646	46	44.875	50.875
 680	90.408	54.335	1.4985	83.75	24.375	18.625
 681	26.668	7.7075	63.496	6.125	7.125	23.5
 682	58.933	25.917	94.913	31.25	22.75	65.125
 683	9.8548	0.76371	72.617	1.75	8.5	31.125
 684	47.99	75.517	31.176	42.25	39.5	24.25
 685	48.087	9.0808	60.091	18.125	7.875	23
 686	10.988	21.876	19.614	3	3.25	3.5
 687	22.598	55.646	65.078	17	25.125	33
 688	9.0697	82.142	78.531	32.375	54.25	57.875
 689	90.301	42.459	39.12	79	19.875	23.375
 690	47.378	36.472	11.171	22	9.375	6.75
 691	49.382	1.8032	9.66	18.125	2.125	3.375
 692	1.9703	20.522	9.5307	1.875	2.5	1.75
 693	81.649	69.738	31.735	78.125	37.5	27.5
 694	34.53	73.626	67.13	33.125	42.125	43.125
 695	81.659	80.94	43.479	86.75	50.875	37.875
 696	10.291	63.628	90.197	19.625	39.375	64.25
 697	9.3825	51.554	18.669	11.5	16.125	9.125
 698	17.762	96.201	72.191	46.625	72.625	60.75
 699	67.56	52.693	6.6256	47.875	20.125	13.375
 700	45.853	7.7641	41.225	16	4.5	11.5
 701	10.95	73.197	73.054	25.25	42.125	47.375
 702	30.698	39.723	1.525	12.875	9.625	5.25
 703	81.002	52.333	91.825	67.75	36.5	70.25
 704	51.213	8.005	98.43	21.875	20	68
 705	5.4368	7.4372	80.307	1.625	11	39
 706	23.483	5.5586	76.358	5	10.125	35.375
 707	32.278	78.328	11.186	34.625	40	19.875
 708	4.5816	10.694	55.933	1.375	5.375	17.25
 709	89.829	62.524	36.614	88	32.5	28.375
 710	80.544	47.439	8.1742	63.375	18.5	14.375
 711	52.75	18.751	64.422	23.125	10.5	27.625
 712	62.358	2.6644	71.659	31.25	11.375	34.625
 713	64.674	45.928	67.561	42	22.75	36.75
 714	9.4766	33.184	90.141	6.375	20.25	54.25
 715	70.466	56.323	80.091	53.75	33.75	53.75
 716	57.237	71.111	99.776	48.625	52.625	85.75
 717	87.665	54.898	77.235	79.625	34.25	53.75
 718	16.33	71.595	0.85939	24.375	32	15.125
 719	35.3	79.117	32.908	37	42.625	25.25
 720	28.667	65.599	9.3944	24.375	27	13.625
 721	6.4435	54.089	70.225	13.125	24.875	36.75
 722	61.839	6.8281	38.81	30	5.5	12.375
 723	26.82	89.87	94.786	44.375	71.125	85.125
 724	5.7523	92.776	20.962	40.75	59.5	29.125
 725	75.073	63.309	7.8752	63.125	29	18.5
 726	61.102	20.846	50.693	31.125	9.25	19.375
 727	22.212	92.446	35.502	43.375	60	33.5
 728	92.086	35.29	8.3735	78.5	14.5	14.625
 729	6.1371	56.812	8.6847	13.625	19.25	9.375
 730	17.496	95.134	90.968	46.125	77	82.125
 731	97.652	22.856	91.04	89.375	26.375	67.75
 732	49.838	56.677	94.927	33.625	37.25	71.25
 733	52.347	66.189	89.979	40.875	43.25	67.5
 734	9.2025	61.07	60.052	16.875	27.875	30.5
 735	91.322	33.889	95.067	78.625	30	73.25
 736	35.535	50.421	47.701	19.75	19	20.375
 737	90.687	67.765	92.424	94.125	50.375	78.5
 738	23.14	27.979	7.2528	6.875	4.75	3
 739	74.571	37.346	94.34	52.125	28.5	68.5
 740	94.499	74.711	82.469	105.75	55.375	70.625
 741	43.662	60.242	6.7089	29.25	23.125	12.5
 742	94.229	53.959	43.646	91.125	27.875	29.875
 743	88.819	11.383	66.503	68.375	14.625	35.875
 744	32.047	21.909	62.334	9.625	9.25	23.875
 745	54.95	92.541	82.626	64.25	72	72.5
 746	71.956	56.212	58.905	55.25	28.25	34.5
 747	99.325	70.902	23.244	112.75	40.75	30.5
 748	90.147	23.875	23.537	72.25	10.875	14.625
 749	4.9251	37.67	45.258	6.25	11	14.625
 750	92.003	4.3641	46.508	74	10.75	22.625
 751	8.0287	68.481	36.597	21.125	30.875	20.375
 752	94.712	55.38	27.877	92.375	27.125	24.125
 753	59.036	41.793	22.693	33.875	13.375	11.125
 754	75.085	4.1457	81.543	47.125	16	47.875
 755	63.301	73.58	81.794	56.75	48.75	61.625
 756	87.889	97.159	72.707	114.75	81.125	71.75
 757	39.453	9.5152	91.318	13	16.25	55.625
 758	26.353	18.572	94.841	7.875	18.375	60.625
 759	19.325	8.4249	4.496	3.125	0.875	1
 760	14.945	80.063	53.214	31.125	45.875	34.75
 761	56.393	7.7606	18.733	24.5	3.375	5.625
 762	53.296	91.987	40.941	61.125	62.375	38.5
 763	91.714	5.4089	17.461	73.25	8.125	12.625
 764	35.214	69.883	47.511	30.5	34.875	27.625
 765	54.174	65.046	39.976	40.625	30.125	23.5
 766	0.48739	73.38	13.583	23.75	33.875	16.625
 767	45.038	24.464	90.44	18.75	19.125	56.625
 768	63.657	41.354	57.623	39	17.875	27.5
 769	60.349	99.318	73.525	77	81.375	68.375
 770	45.802	53.303	31.659	27.25	19.5	15
 771	66.01	80.362	74.383	64.5	54.125	57.25
 772	23.949	64.714	91.592	23.625	41.125	66.875
 773	74.347	9.4171	54.078	45.625	9.625	22.875
 774	92.529	91.743	63.785	117.25	71.125	60.75
 775	27.251	94.198	55.878	47.125	65.875	46
 776	35.57	11.733	10.395	9.5	2	2.5
 777	2.5649	51.038	46.451	11.125	18.5	18.625
 778	91.133	22.688	78.884	75.125	20.5	50.375
 779	9.3684	3.2632	25.712	1	1.25	3.5
 780	89.782	58.781	98.566	85.875	45.5	85.625
 781	91.178	92.619	40.078	113.75	68.75	46.5
 782	67.918	75.593	60.707	62.75	45.75	42.875
 783	21.214	7.6666	93.134	5.125	16.125	57
 784	16.312	15.496	27.702	3.125	2.75	4.75
 785	55.058	61.647	63.033	39.875	31.5	36.375
 786	64.827	43.743	39.237	40.875	16.5	18
 787	76.437	76.558	23.556	74.25	43.125	27.25
 788	23.505	31.715	37.321	7.875	7.875	10.25
 789	73.049	16.469	95.896	45.75	22.375	68.375
 790	86.35	91.415	7.6506	104.125	63.75	36.125
 791	75.383	18.628	65.782	48.375	13.375	32.625
 792	69.893	90.723	32.423	78.5	61	36.75
 793	48.41	50.555	75.728	28.875	26.125	44
 794	66.07	6.5086	22.487	34.625	4.625	7.875
 795	56.705	65.792	24.032	43	29.5	18.75
 796	76.562	34.662	51.314	53.125	15.5	24.5
 797	79.282	37.864	70.629	58.75	21.375	41.125
 798	61.86	83.501	85.092	62.875	61.25	70.75
 799	55.206	71.204	58.769	45.5	39.25	37.25
 800	41.161	67.679	77.016	32.875	39.375	50.5
 801	39.082	35.254	73.407	16.625	16.625	36.75
 802	54.232	98.131	91.703	70.125	85.125	88.875
 803	52.316	68.565	11.225	40.625	30.875	17.125
 804	13.126	31.651	17.948	5.25	6	4.5
 805	41.211	67.64	94.245	33.75	45.125	73.625
 806	6.2691	78.009	44.653	27.875	41.75	28.375
 807	18.472	48.506	58.249	12.375	18.875	25.375
 808	91.193	95.684	89.468	118.75	85	91.875
 809	90.576	89.753	96.277	111	78	97.5
 810	91.055	18.181	4.8873	73.75	9.125	11.75
 811	9.5158	57.466	44.934	14.75	22.625	19.875
 812	74.253	8.6243	35.462	45.375	6.875	13.375
 813	30.958	79.592	58.964	35.375	46.625	39.125
 814	64.297	44.2	12.447	39.875	14.625	10.75
 815	90.387	78.022	2.123	99.125	46.125	28.625
 816	38.276	57.67	62.47	25.125	27	32.75
 817	69.306	81.298	10.013	68.75	47.125	26.125
 818	11.786	56.194	98.458	15.875	36.875	74
 819	37.361	92.605	63.696	51	66.125	51.375
 820	99.099	26.774	11.31	90.875	13	15.625
 821	33.69	80.487	44.1	37.5	45.5	31
 822	58.378	47.696	96.771	37.125	33	71.5
 823	8.31	80.971	8.1118	30.125	42.5	20.125
 824	36.053	31.424	11.914	13	6.625	4.75
 825	23.96	74.365	97.709	30.25	52.75	81
 826	2.2643	18.895	91.763	3	16.75	54.75
 827	33.23	92.745	7.8538	47.875	59.375	28.25
 828	74.486	38.764	0.43818	50.375	13	10.625
 829	72.293	67.732	84.511	63.375	44.875	64
 830	71.349	55.278	23.75	53.125	22.75	17.25
 831	10.998	19.916	82.596	3.625	13.75	43.25
 832	1.5798	33.328	79.698	5.375	16.625	41.625
 833	61.955	8.9911	90.766	31.5	17.875	57.625
 834	44.195	40.277	31.491	20.875	12	11.375
 835	59.06	79.425	21.32	54.75	44.25	25.125
 836	9.8214	2.9467	42.842	1.25	2.875	9.75
END_DATA
