CTI3   

DESCRIPTOR "Argyll Calibration Target chart information 3"
ORIGINATOR "Argyll dispread"
CREATED "Mon Dec 19 14:00:51 2011"
KEYWORD "DEVICE_CLASS"
DEVICE_CLASS "DISPLAY"
KEYWORD "COLOR_REP"
COLOR_REP "RGB_XYZ"
KEYWORD "TARGET_INSTRUMENT"
TARGET_INSTRUMENT "Hughski ColorHug"
KEYWORD "INSTRUMENT_TYPE_SPECTRAL"
INSTRUMENT_TYPE_SPECTRAL "NO"
KEYWORD "LUMINANCE_XYZ_CDM2"
LUMINANCE_XYZ_CDM2 "57.678223 43.945312 51.498413"
KEYWORD "NORMALIZED_TO_Y_100"
NORMALIZED_TO_Y_100 "YES"

NUMBER_OF_FIELDS 7
BEGIN_DATA_FORMAT
SAMPLE_ID RGB_R RGB_G RGB_B XYZ_X XYZ_Y XYZ_Z 
END_DATA_FORMAT

NUMBER_OF_SETS 836
BEGIN_DATA
1 100.00 100.00 100.00 131.25 100.00 117.19 
2 100.00 100.00 100.00 131.77 100.52 116.67 
3 100.00 100.00 100.00 131.77 101.56 115.62 
4 100.00 100.00 100.00 131.77 101.56 115.62 
5 33.330 32.622 30.968 11.979 9.3750 9.8958 
6 100.00 0.0000 100.00 83.854 27.604 80.729 
7 100.00 100.00 0.0000 129.69 84.375 48.438 
8 0.0000 100.00 100.00 47.396 94.271 102.60 
9 0.0000 100.00 0.0000 45.312 75.521 35.417 
10 0.0000 0.0000 100.00 2.6042 19.271 68.229 
11 100.00 0.0000 0.0000 80.208 8.8542 13.542 
12 0.0000 0.0000 0.0000 0.52083 0.52083 0.52083 
13 0.0000 52.455 100.00 13.021 36.458 76.562 
14 100.00 0.0000 50.300 82.292 13.021 27.604 
15 100.00 54.739 100.00 95.833 47.396 90.104 
16 100.00 52.128 0.0000 93.229 26.562 21.354 
17 0.0000 0.0000 46.181 0.52083 3.6458 12.500 
18 0.0000 51.141 0.0000 10.417 16.667 8.3333 
19 0.0000 100.00 51.348 45.312 78.646 51.042 
20 100.00 100.00 52.037 129.17 86.979 65.104 
21 49.216 0.0000 0.0000 16.667 2.0833 3.1250 
22 56.159 100.00 0.0000 67.708 76.042 39.062 
23 49.226 100.00 100.00 64.583 93.750 106.25 
24 44.487 0.0000 100.00 15.625 19.792 70.833 
25 100.00 44.498 52.029 90.104 25.521 34.896 
26 48.926 48.544 100.00 28.125 35.938 77.604 
27 51.368 100.00 47.250 64.062 80.729 50.521 
28 49.893 0.0000 49.033 17.708 5.7292 16.667 
29 53.109 51.372 0.0000 29.688 19.271 11.458 
30 0.0000 58.587 53.943 14.062 27.083 27.083 
31 100.00 28.065 100.00 85.938 32.292 84.375 
32 0.0000 0.0000 72.874 1.5625 9.3750 32.812 
33 0.0000 26.758 100.00 4.6875 22.917 71.354 
34 0.0000 25.426 0.0000 2.6042 4.1667 2.6042 
35 72.508 0.0000 100.00 40.104 22.917 75.521 
36 100.00 27.395 0.0000 83.854 13.542 15.625 
37 74.470 100.00 100.00 89.062 96.354 110.94 
38 100.00 0.0000 25.728 81.771 9.8958 17.188 
39 73.862 0.0000 0.0000 41.146 4.6875 6.7708 
40 100.00 100.00 25.402 130.21 83.854 52.083 
41 0.0000 75.751 100.00 26.562 57.812 86.458 
42 0.0000 75.172 0.0000 24.479 39.062 18.229 
43 0.0000 100.00 25.864 45.833 76.042 38.542 
44 100.00 0.0000 74.801 82.812 18.750 47.396 
45 0.0000 100.00 75.421 46.875 84.896 70.833 
46 24.577 0.0000 0.0000 4.6875 0.52083 1.0417 
47 26.321 100.00 0.0000 49.479 75.521 36.458 
48 100.00 75.835 0.0000 106.25 48.958 32.292 
49 100.00 100.00 77.061 128.65 93.750 86.458 
50 71.263 100.00 0.0000 82.812 79.167 41.667 
51 0.0000 0.0000 15.614 0.52083 0.52083 2.0833 
52 0.0000 30.049 70.936 4.6875 13.542 33.854 
53 100.00 77.691 100.00 109.90 68.229 102.08 
54 24.486 100.00 100.00 51.042 92.188 104.69 
55 100.00 62.784 31.909 98.958 35.938 31.250 
56 29.552 0.0000 100.00 8.3333 18.750 69.792 
57 32.980 70.921 100.00 30.729 53.125 85.417 
58 0.0000 27.681 40.241 3.6458 7.2917 11.458 
59 67.901 71.021 100.00 56.250 56.771 89.062 
60 28.154 100.00 67.829 51.562 83.854 63.021 
61 71.637 100.00 70.001 84.896 87.500 70.833 
62 58.822 58.763 53.586 38.542 30.208 31.250 
63 33.466 30.480 0.0000 11.458 6.7708 4.1667 
64 100.00 73.795 71.277 105.21 54.688 62.500 
65 68.394 29.692 0.0000 36.979 9.3750 8.8542 
66 70.399 0.0000 29.039 36.458 5.7292 10.938 
67 28.078 0.0000 26.956 5.7292 2.0833 5.2083 
68 28.532 72.339 0.0000 27.083 36.458 18.229 
69 100.00 30.941 26.496 84.896 15.625 20.312 
70 34.597 0.0000 73.611 9.3750 9.8958 35.417 
71 71.573 0.0000 72.408 39.062 13.021 38.542 
72 0.0000 71.029 29.412 21.354 34.896 21.354 
73 68.386 75.008 0.0000 58.854 42.188 23.958 
74 68.088 27.309 100.00 38.542 26.562 75.521 
75 100.00 26.457 73.749 85.417 22.396 48.438 
76 74.344 100.00 27.392 88.542 80.729 45.833 
77 27.558 100.00 28.197 51.042 77.083 40.104 
78 31.196 27.465 100.00 11.458 23.958 71.354 
79 0.0000 75.521 72.824 25.000 48.958 51.562 
80 0.0000 50.930 25.553 10.938 17.708 11.979 
81 32.060 33.584 64.033 11.979 14.583 29.167 
82 81.666 55.380 0.0000 63.021 25.521 17.708 
83 68.257 32.751 58.286 38.021 16.146 28.646 
84 0.0000 55.248 81.585 13.542 31.250 52.604 
85 73.781 52.099 100.00 52.604 40.104 84.375 
86 100.00 50.537 82.952 93.229 36.458 66.146 
87 23.550 0.0000 50.439 4.1667 4.6875 15.625 
88 31.335 62.746 31.114 22.917 28.125 18.750 
89 100.00 18.310 49.418 83.333 14.583 28.125 
90 26.498 48.404 0.0000 14.062 15.104 8.3333 
91 47.910 100.00 85.744 62.500 90.104 84.375 
92 71.829 47.313 31.811 47.396 20.312 18.229 
93 31.304 64.132 69.316 24.479 36.458 43.229 
94 80.403 0.0000 54.321 49.479 10.417 25.000 
95 18.455 50.036 100.00 14.062 35.417 76.562 
96 50.653 100.00 16.345 62.500 77.604 40.104 
97 80.121 100.00 52.261 94.792 84.896 59.375 
98 0.0000 22.540 19.289 2.6042 3.6458 3.6458 
99 100.00 75.273 46.886 105.73 51.042 44.792 
100 0.0000 78.618 56.625 27.083 47.917 39.583 
101 51.137 80.627 100.00 47.917 65.104 93.750 
102 48.446 0.0000 17.864 16.667 2.6042 4.6875 
103 100.00 50.023 21.211 92.188 25.521 23.438 
104 50.115 20.118 0.0000 19.271 4.6875 4.1667 
105 58.099 72.426 33.158 45.833 39.583 26.562 
106 19.364 100.00 50.197 48.958 78.646 50.000 
107 50.683 19.177 100.00 21.354 22.917 71.875 
108 53.370 0.0000 81.576 21.354 14.062 45.312 
109 47.768 76.245 0.0000 40.625 42.188 21.354 
110 0.0000 18.927 55.503 2.0833 7.8125 18.750 
111 0.0000 13.277 0.0000 1.0417 1.5625 1.0417 
112 72.862 72.473 75.625 61.458 50.521 58.854 
113 100.00 13.904 0.0000 81.250 10.417 14.062 
114 86.349 0.0000 100.00 59.375 25.000 78.646 
115 100.00 41.941 100.00 88.542 38.542 88.021 
116 100.00 81.785 16.464 111.46 55.729 38.021 
117 0.0000 44.063 52.596 8.3333 16.667 22.396 
118 0.0000 0.0000 58.917 1.0417 5.7292 20.312 
119 59.250 24.551 29.789 27.604 7.8125 10.938 
120 82.730 82.874 100.00 84.896 72.396 100.00 
121 80.039 0.0000 12.618 48.438 5.7292 9.3750 
122 60.957 47.729 77.817 36.979 28.125 49.479 
123 100.00 0.0000 38.618 82.292 11.458 21.354 
124 0.0000 40.090 100.00 8.3333 28.646 72.917 
125 0.0000 15.283 82.322 2.0833 13.542 43.750 
126 17.592 81.726 100.00 33.333 66.667 90.625 
127 100.00 14.130 100.00 83.333 29.167 82.292 
128 15.261 100.00 82.059 47.917 87.500 79.688 
129 47.770 79.418 60.389 42.708 52.083 45.312 
130 18.768 16.429 0.0000 3.6458 2.0833 2.0833 
131 55.634 100.00 65.763 66.667 84.375 65.625 
132 100.00 100.00 38.541 128.65 85.417 57.292 
133 17.421 0.0000 83.497 3.6458 12.500 45.833 
134 17.237 16.758 100.00 5.2083 20.312 70.312 
135 0.0000 15.067 30.039 1.5625 3.1250 6.2500 
136 0.0000 0.0000 86.505 2.0833 13.021 48.958 
137 75.736 72.799 50.020 66.146 44.792 38.542 
138 100.00 83.323 85.529 115.62 70.833 83.333 
139 100.00 100.00 64.894 130.73 90.625 72.917 
140 81.980 84.914 0.0000 83.854 57.292 32.812 
141 0.0000 63.757 15.490 17.188 27.604 14.583 
142 49.514 66.135 100.00 36.458 50.000 84.375 
143 100.00 0.0000 61.862 81.250 15.625 35.938 
144 24.308 45.410 49.831 13.021 17.708 21.354 
145 15.963 0.0000 17.047 2.0833 1.0417 2.6042 
146 87.497 100.00 100.00 106.25 99.479 113.54 
147 52.099 25.003 75.752 21.875 16.146 41.146 
148 14.909 81.162 0.0000 29.688 45.833 22.396 
149 0.0000 34.792 14.626 5.2083 8.3333 5.2083 
150 48.390 45.075 22.552 24.479 15.625 11.458 
151 83.545 65.965 100.00 73.438 52.604 91.146 
152 16.226 62.345 0.0000 18.229 25.521 13.021 
153 63.222 0.0000 14.914 29.167 4.1667 6.2500 
154 80.449 13.446 0.0000 50.000 7.2917 8.8542 
155 83.917 41.562 0.0000 61.458 16.667 14.062 
156 100.00 60.448 46.300 97.917 36.458 36.458 
157 15.584 0.0000 34.795 2.0833 2.6042 7.2917 
158 17.144 65.121 100.00 21.354 47.396 81.771 
159 83.602 55.334 62.667 66.667 32.292 41.667 
160 0.0000 82.190 14.220 29.688 48.438 23.958 
161 25.132 74.856 50.616 28.125 43.229 33.854 
162 0.0000 13.769 100.00 2.6042 20.312 69.792 
163 87.181 0.0000 0.0000 58.333 6.7708 9.8958 
164 0.0000 100.00 39.190 45.312 76.562 44.792 
165 78.047 65.914 19.865 63.542 34.375 23.438 
166 100.00 63.961 15.865 98.958 35.938 27.604 
167 100.00 45.955 36.032 90.104 23.958 26.562 
168 15.926 100.00 16.890 47.917 74.479 37.500 
169 41.459 100.00 0.0000 57.812 75.521 36.979 
170 48.707 37.288 48.139 22.396 14.062 20.312 
171 83.381 100.00 13.285 101.04 81.250 44.792 
172 78.129 25.303 75.621 50.000 18.750 44.792 
173 12.396 0.0000 0.0000 1.5625 0.52083 0.52083 
174 37.607 48.336 83.346 20.312 28.646 53.125 
175 35.588 15.356 0.0000 9.8958 3.1250 2.6042 
176 61.245 100.00 100.00 73.438 96.354 108.33 
177 100.00 67.290 87.195 101.04 53.125 78.125 
178 0.0000 0.0000 30.615 0.52083 2.0833 5.2083 
179 35.187 81.789 83.323 38.021 60.417 69.271 
180 39.525 80.194 22.879 38.021 46.875 26.562 
181 50.634 34.593 0.0000 22.396 9.3750 6.7708 
182 14.175 100.00 63.146 47.396 80.729 59.375 
183 83.493 17.728 34.574 55.208 9.8958 16.146 
184 23.463 22.014 79.943 7.2917 14.062 42.708 
185 18.066 31.847 0.0000 6.7708 6.7708 3.6458 
186 87.201 100.00 81.361 107.81 92.708 86.979 
187 0.0000 100.00 87.950 46.875 89.062 85.417 
188 34.476 17.888 46.220 9.8958 6.2500 14.583 
189 18.277 0.0000 67.390 3.1250 8.3333 27.604 
190 100.00 87.972 0.0000 117.71 65.104 39.583 
191 82.925 34.850 100.00 58.854 32.292 80.729 
192 0.0000 88.016 100.00 36.458 74.479 95.312 
193 36.104 85.655 100.00 42.188 72.396 95.312 
194 60.981 0.0000 0.0000 26.562 3.1250 4.6875 
195 51.466 61.826 78.106 34.375 38.021 53.646 
196 78.427 31.983 22.175 50.000 11.979 13.542 
197 66.017 44.321 0.0000 39.583 15.625 11.458 
198 83.941 0.0000 84.177 55.208 18.229 55.208 
199 20.158 46.612 23.269 11.458 15.104 10.417 
200 0.0000 100.00 62.618 46.354 80.208 58.854 
201 33.832 0.0000 13.933 7.8125 1.5625 2.6042 
202 100.00 17.286 16.322 83.333 11.458 15.625 
203 0.0000 42.204 83.926 8.3333 23.958 50.521 
204 0.0000 87.774 0.0000 33.854 55.208 26.042 
205 64.988 0.0000 59.017 31.250 9.3750 25.521 
206 14.677 0.0000 100.00 3.6458 19.271 68.229 
207 88.934 82.673 35.021 91.667 57.292 39.583 
208 0.0000 63.778 100.00 18.750 45.833 81.771 
209 83.429 17.674 100.00 56.250 26.562 78.646 
210 30.899 100.00 85.668 52.083 88.542 84.896 
211 83.680 0.0000 41.016 53.646 8.8542 18.750 
212 100.00 63.515 0.0000 97.396 34.896 26.562 
213 85.074 69.987 0.0000 76.562 39.062 25.000 
214 20.801 45.524 69.018 11.979 21.354 35.938 
215 21.382 82.482 73.017 33.854 56.771 56.250 
216 100.00 15.128 64.249 83.333 17.188 39.062 
217 36.522 0.0000 58.427 9.8958 6.7708 21.354 
218 22.466 81.296 33.007 32.812 48.438 28.646 
219 62.531 87.152 0.0000 62.500 57.812 30.208 
220 84.120 85.397 67.886 88.542 65.625 60.938 
221 18.870 27.336 45.389 6.2500 8.3333 14.062 
222 66.439 100.00 14.444 78.125 79.688 41.667 
223 41.636 22.147 19.003 14.062 5.2083 5.7292 
224 61.271 100.00 81.940 72.917 90.104 82.812 
225 86.013 100.00 0.0000 103.12 81.771 45.312 
226 37.570 0.0000 0.0000 9.8958 1.5625 2.0833 
227 100.00 16.132 84.102 82.812 22.917 60.417 
228 0.0000 100.00 13.619 44.792 75.000 36.979 
229 38.905 100.00 56.471 55.729 80.729 55.729 
230 100.00 15.382 34.563 82.812 12.500 20.833 
231 36.656 14.908 100.00 11.458 20.833 71.354 
232 0.0000 62.593 66.608 17.188 32.812 39.583 
233 66.347 12.528 100.00 34.375 22.917 74.479 
234 100.00 43.375 69.233 90.104 29.167 47.917 
235 100.00 56.360 61.236 95.833 35.417 44.792 
236 0.0000 86.194 44.955 33.333 56.250 36.458 
237 64.527 87.262 100.00 65.625 76.562 98.438 
238 34.411 0.0000 42.471 8.3333 4.1667 11.458 
239 80.230 59.707 85.120 64.583 41.667 65.625 
240 20.625 19.056 14.791 4.6875 3.6458 3.1250 
241 15.341 34.221 100.00 8.3333 26.042 72.917 
242 36.777 0.0000 87.905 10.417 14.583 53.125 
243 34.598 56.247 100.00 21.875 40.104 80.208 
244 20.860 67.629 17.418 21.875 31.771 17.188 
245 44.958 60.843 18.054 29.167 26.042 16.146 
246 37.421 60.193 0.0000 23.958 24.479 13.021 
247 84.011 33.849 42.612 59.375 15.625 22.917 
248 17.241 60.339 37.743 17.188 26.042 19.792 
249 50.650 17.261 53.278 19.792 8.8542 20.312 
250 45.505 48.926 65.152 24.479 23.958 34.896 
251 44.567 84.081 39.649 44.792 54.167 34.375 
252 100.00 86.339 72.054 117.71 71.354 69.792 
253 68.140 61.135 0.0000 49.479 28.646 17.188 
254 17.930 66.986 81.403 21.875 42.188 56.771 
255 39.242 60.215 48.926 25.521 29.167 27.083 
256 20.099 18.770 62.967 5.2083 9.3750 25.000 
257 34.553 100.00 14.582 52.604 76.562 38.021 
258 87.345 0.0000 66.694 59.375 14.062 36.979 
259 0.0000 43.714 39.842 7.8125 14.583 15.104 
260 100.00 37.705 13.955 85.938 18.229 18.750 
261 31.265 86.993 0.0000 39.583 54.167 27.083 
262 51.402 82.661 81.338 48.958 60.938 68.750 
263 100.00 100.00 12.984 129.69 82.812 50.000 
264 0.0000 37.859 0.0000 6.2500 8.8542 4.6875 
265 62.092 58.215 100.00 43.229 43.229 83.333 
266 86.186 100.00 64.100 105.73 87.500 69.271 
267 100.00 35.251 85.898 87.500 29.688 64.062 
268 63.182 89.992 41.974 64.583 65.104 41.667 
269 13.504 100.00 0.0000 46.875 75.521 35.417 
270 100.00 0.0000 13.228 81.250 9.3750 14.583 
271 63.881 40.826 100.00 36.979 32.292 78.125 
272 69.387 84.838 20.792 66.667 56.250 32.292 
273 0.0000 70.279 45.136 20.833 36.979 27.604 
274 79.094 64.754 40.908 64.062 35.938 30.729 
275 62.385 54.099 17.396 38.542 22.917 15.625 
276 64.408 14.621 0.0000 30.208 5.2083 5.7292 
277 70.028 15.606 44.651 37.500 8.8542 18.229 
278 0.0000 63.544 0.0000 16.667 26.562 13.021 
279 83.475 47.274 20.502 62.500 20.833 18.229 
280 55.866 0.0000 32.671 22.917 4.1667 9.8958 
281 58.007 0.0000 100.00 26.042 21.354 72.396 
282 100.00 0.0000 87.698 83.333 22.396 63.021 
283 0.0000 13.792 67.215 1.5625 8.8542 27.604 
284 84.123 17.001 58.549 56.250 13.021 29.167 
285 59.579 32.873 15.966 29.688 10.417 8.8542 
286 10.410 32.998 28.659 5.7292 8.3333 7.8125 
287 17.231 40.031 85.650 9.3750 23.958 52.604 
288 37.568 41.561 10.108 16.146 12.500 7.8125 
289 0.0000 69.015 85.092 21.354 44.792 62.500 
290 14.442 100.00 36.187 46.354 77.083 43.229 
291 100.00 40.549 0.0000 86.458 18.750 18.750 
292 82.143 45.435 78.429 59.896 29.688 53.646 
293 52.674 0.0000 67.300 20.312 9.3750 31.250 
294 0.0000 87.868 66.793 34.896 61.458 53.646 
295 86.530 100.00 40.524 105.73 82.812 54.167 
296 71.777 85.586 67.232 71.354 63.542 58.333 
297 43.216 100.00 31.671 58.854 77.083 42.708 
298 39.245 32.908 85.845 16.146 20.833 52.604 
299 0.0000 45.662 67.543 9.3750 20.833 33.333 
300 12.161 100.00 100.00 48.958 93.750 102.60 
301 67.049 0.0000 85.516 33.854 17.188 52.083 
302 100.00 89.041 100.00 120.31 84.375 108.33 
303 20.246 60.698 56.526 18.750 29.688 30.729 
304 52.177 55.457 40.416 31.250 25.000 21.875 
305 72.617 87.018 83.932 72.396 70.833 77.604 
306 40.512 16.723 66.475 12.500 10.938 29.688 
307 68.507 49.232 50.605 43.750 23.958 28.125 
308 65.622 100.00 54.525 76.562 82.812 57.812 
309 54.115 37.240 66.394 26.042 17.708 34.375 
310 100.00 76.138 31.267 107.29 49.479 38.021 
311 54.728 65.623 0.0000 38.542 30.208 17.188 
312 63.126 12.526 64.370 30.208 10.938 30.208 
313 72.827 18.080 23.704 41.146 7.2917 10.417 
314 23.268 15.278 34.947 5.2083 4.1667 8.3333 
315 87.648 68.954 59.645 80.729 44.271 45.833 
316 0.0000 85.595 85.198 33.854 65.625 71.354 
317 35.798 84.371 69.210 40.104 59.375 54.167 
318 36.062 47.494 35.919 18.229 17.708 15.104 
319 86.083 36.277 59.152 62.500 20.312 33.854 
320 58.210 100.00 30.361 69.271 79.167 44.792 
321 46.745 14.614 32.317 16.146 5.2083 8.8542 
322 81.573 73.869 86.954 73.958 56.771 76.042 
323 85.991 49.387 48.206 66.667 26.042 30.208 
324 28.062 87.906 19.654 39.062 56.771 29.688 
325 68.992 17.993 85.124 36.979 18.750 54.167 
326 100.00 66.147 100.00 101.56 55.729 96.354 
327 33.358 64.806 84.517 26.042 40.625 60.938 
328 41.351 17.736 80.522 14.062 14.583 44.792 
329 100.00 100.00 88.719 130.73 96.875 100.00 
330 66.336 0.0000 44.320 32.292 6.7708 16.146 
331 64.850 67.090 12.293 48.958 33.333 20.312 
332 15.262 31.268 63.277 6.7708 13.021 26.562 
333 15.008 43.663 37.300 9.8958 14.583 13.542 
334 0.0000 57.895 38.078 14.062 24.479 18.750 
335 66.599 58.458 67.871 46.875 33.333 43.750 
336 59.191 18.651 15.215 26.042 5.2083 6.7708 
337 66.781 31.140 84.629 36.979 22.396 54.688 
338 88.033 85.158 52.140 92.188 63.021 50.521 
339 36.882 100.00 100.00 55.729 94.271 105.73 
340 26.102 33.094 17.006 8.8542 7.8125 5.7292 
341 56.309 36.861 35.862 28.125 13.021 15.104 
342 45.839 65.587 67.033 32.812 38.021 42.708 
343 83.709 81.172 16.406 82.812 52.604 32.292 
344 0.0000 48.132 13.005 9.3750 15.625 8.3333 
345 87.176 50.021 100.00 70.312 41.146 86.458 
346 51.219 84.244 13.730 48.438 52.604 28.125 
347 60.606 71.415 48.406 46.875 40.625 34.375 
348 0.0000 11.359 12.718 1.0417 1.5625 2.0833 
349 86.429 49.705 33.145 67.708 23.958 22.917 
350 34.056 40.958 100.00 16.146 29.688 75.521 
351 100.00 30.557 59.628 85.417 20.312 37.500 
352 88.497 26.902 13.449 64.583 11.458 13.542 
353 14.167 51.980 88.218 14.062 31.250 59.375 
354 13.784 12.983 49.370 3.1250 5.2083 15.104 
355 15.018 88.441 48.062 36.979 60.417 39.583 
356 87.790 25.769 89.215 64.062 25.000 63.542 
357 0.0000 33.206 55.865 4.6875 12.500 21.354 
358 74.324 76.029 35.536 66.146 46.354 32.812 
359 65.863 57.223 42.324 44.792 27.604 25.521 
360 30.893 54.646 13.136 18.229 20.312 11.458 
361 0.0000 34.360 28.321 5.2083 8.3333 8.3333 
362 15.443 77.087 85.116 28.646 54.167 66.146 
363 63.381 68.947 68.521 49.479 43.229 47.917 
364 69.733 27.566 42.917 39.062 11.458 18.750 
365 32.754 100.00 42.760 52.604 79.167 46.354 
366 47.096 29.481 34.829 18.750 9.3750 11.979 
367 8.5451 71.948 62.695 23.438 42.188 40.104 
368 0.0000 86.048 29.300 32.292 54.688 30.208 
369 53.697 51.572 85.367 31.771 32.812 58.854 
370 17.608 56.690 12.515 15.104 21.875 11.979 
371 90.638 14.414 49.227 66.667 12.500 25.521 
372 63.248 63.640 89.550 46.875 44.271 69.792 
373 100.00 85.976 58.455 116.67 67.708 57.812 
374 9.8311 28.027 7.5567 4.1667 5.2083 3.1250 
375 89.831 64.313 69.506 81.250 42.188 52.604 
376 31.754 12.995 25.543 7.8125 3.1250 5.7292 
377 75.914 45.966 64.957 51.562 25.521 39.062 
378 7.5735 50.695 58.941 10.938 22.396 28.646 
379 100.00 69.835 58.912 102.08 46.875 49.479 
380 32.211 34.376 48.339 11.979 11.979 18.229 
381 13.901 12.159 73.555 3.1250 10.417 34.896 
382 87.071 9.0280 77.653 59.896 17.188 48.438 
383 23.272 85.409 84.290 36.979 63.542 70.833 
384 93.289 39.480 26.145 76.042 18.229 19.792 
385 65.769 59.630 30.967 46.354 28.125 21.354 
386 100.00 32.265 41.803 85.938 18.229 26.042 
387 86.568 85.281 86.961 91.146 70.833 84.375 
388 52.577 86.830 30.016 52.083 56.771 33.854 
389 47.921 40.199 76.902 23.438 21.875 44.271 
390 22.360 86.619 61.580 36.979 59.375 48.438 
391 52.232 33.601 88.787 25.000 23.438 58.333 
392 0.0000 28.523 86.267 5.2083 18.229 50.521 
393 43.497 67.879 39.551 32.812 34.375 25.521 
394 39.877 45.261 0.0000 19.271 14.583 7.8125 
395 86.940 12.430 24.699 59.896 8.8542 13.542 
396 28.363 55.339 90.398 19.271 35.417 64.062 
397 39.018 70.534 57.879 31.250 40.625 37.500 
398 12.833 28.519 78.828 5.2083 16.146 42.188 
399 68.350 31.815 69.975 38.021 18.229 39.062 
400 56.520 26.226 41.626 25.000 9.8958 15.625 
401 12.938 46.218 0.0000 9.8958 14.062 6.7708 
402 8.6938 60.179 26.117 15.104 25.000 15.104 
403 51.995 89.429 96.608 55.208 76.042 94.271 
404 46.905 47.746 48.909 24.479 20.312 23.438 
405 14.352 81.814 19.479 30.729 47.396 25.000 
406 71.482 38.117 12.273 43.229 13.542 11.458 
407 86.616 60.785 10.012 73.958 30.729 21.354 
408 71.811 88.979 52.186 74.479 65.104 48.438 
409 43.213 100.00 72.083 58.854 84.896 68.229 
410 73.920 23.444 8.2853 43.229 8.3333 8.8542 
411 40.629 85.534 53.423 43.750 57.812 42.708 
412 38.955 52.128 22.885 21.354 19.792 13.021 
413 46.480 12.229 8.6707 15.625 3.1250 3.6458 
414 40.855 33.301 22.309 15.625 9.3750 8.3333 
415 76.365 66.787 61.060 62.500 40.625 43.750 
416 7.5076 12.025 20.590 1.5625 2.0833 3.6458 
417 85.930 27.031 0.0000 58.854 10.938 11.979 
418 100.00 87.757 44.060 116.15 66.667 51.042 
419 41.543 25.624 54.896 14.583 9.8958 21.875 
420 59.533 76.669 91.789 51.562 57.812 80.208 
421 58.226 12.079 28.862 25.521 5.2083 8.8542 
422 50.514 8.8602 88.281 19.792 16.667 54.167 
423 41.983 0.0000 31.301 12.500 3.1250 7.8125 
424 28.024 36.455 77.877 11.458 19.271 43.229 
425 12.718 41.027 11.129 7.8125 11.458 6.2500 
426 26.194 75.573 88.088 30.729 53.646 69.792 
427 28.936 71.474 37.671 27.604 37.500 25.000 
428 90.497 74.770 26.512 89.062 46.875 32.292 
429 17.514 75.984 41.507 27.083 42.708 29.167 
430 16.621 64.069 68.891 19.792 35.938 42.188 
431 12.420 21.661 36.669 3.1250 5.7292 9.3750 
432 52.915 46.814 10.465 28.646 16.146 10.938 
433 56.979 91.194 52.490 60.417 66.667 48.438 
434 25.140 52.299 42.419 15.625 20.833 19.271 
435 25.587 6.8296 13.004 5.2083 1.5625 2.6042 
436 55.018 14.818 41.328 22.917 6.7708 14.062 
437 93.397 56.942 87.959 84.375 42.188 72.396 
438 28.374 12.057 85.683 7.2917 14.583 48.958 
439 78.265 6.7088 92.468 48.438 20.833 64.583 
440 39.694 71.314 6.3658 31.771 35.938 18.750 
441 73.259 45.059 87.294 49.479 30.729 61.458 
442 26.381 57.692 76.454 19.271 32.812 46.875 
443 66.587 33.629 31.299 36.979 11.979 14.062 
444 88.523 74.434 46.718 84.896 48.438 40.625 
445 76.836 59.920 49.912 58.333 32.812 32.812 
446 33.152 90.418 31.148 43.229 61.458 34.896 
447 55.924 53.388 68.505 33.854 28.646 41.667 
448 77.248 91.798 41.448 82.812 68.750 46.354 
449 26.737 89.225 45.445 40.104 60.417 40.104 
450 87.642 100.00 25.942 106.77 81.771 48.958 
451 68.631 100.00 40.532 80.208 80.208 50.521 
452 14.485 50.449 49.078 12.500 20.312 21.875 
453 10.654 10.664 89.702 3.1250 15.104 54.167 
454 31.962 49.108 62.920 17.188 22.917 32.292 
455 8.6779 22.468 68.278 3.6458 11.458 29.688 
456 74.727 90.586 6.3447 79.167 64.062 34.896 
457 0.0000 12.136 44.106 1.5625 4.1667 11.458 
458 43.350 78.123 73.610 39.062 53.125 55.729 
459 10.925 11.786 9.5801 1.5625 2.0833 1.5625 
460 15.591 37.386 50.832 7.8125 13.021 19.792 
461 10.685 68.959 9.3113 20.833 32.292 16.146 
462 92.017 72.247 12.692 88.542 42.708 29.167 
463 89.839 77.431 73.400 89.062 57.812 64.062 
464 47.450 74.511 18.753 39.062 39.583 22.917 
465 50.097 90.816 69.461 54.688 69.792 59.896 
466 82.755 34.052 82.994 57.812 25.521 55.729 
467 46.786 72.919 85.794 38.542 51.042 67.188 
468 9.3304 90.457 73.518 38.021 68.750 61.458 
469 88.590 61.902 22.128 77.083 32.812 24.479 
470 100.00 61.262 74.222 97.396 43.229 59.375 
471 86.777 8.8992 8.4672 58.854 7.8125 10.417 
472 39.582 85.966 11.798 42.188 54.688 27.604 
473 85.958 0.0000 24.986 56.771 7.8125 13.021 
474 80.299 22.552 47.163 50.521 11.979 22.396 
475 7.2180 45.128 76.547 9.3750 22.917 43.750 
476 55.989 48.521 58.428 32.292 23.438 30.729 
477 50.728 10.774 73.284 19.792 11.979 36.458 
478 71.269 10.344 11.008 38.021 5.2083 7.8125 
479 91.768 45.194 10.385 73.958 20.312 17.708 
480 7.8976 42.553 25.130 7.8125 13.021 9.3750 
481 54.269 55.846 25.175 32.292 23.438 16.667 
482 41.937 24.646 5.4249 14.583 5.7292 4.1667 
483 89.502 33.423 70.991 67.188 21.875 45.312 
484 75.301 54.745 14.159 53.646 24.479 17.708 
485 76.653 6.2202 65.750 44.792 12.500 33.854 
486 58.072 77.769 7.4688 49.479 44.271 24.479 
487 27.429 73.801 76.267 29.167 46.875 55.208 
488 39.961 56.279 74.128 24.479 31.250 45.833 
489 23.430 28.561 70.622 7.8125 13.542 33.333 
490 91.285 49.258 68.377 76.562 30.208 46.875 
491 95.591 89.122 11.382 110.94 66.146 39.583 
492 28.451 92.151 76.841 44.271 72.396 66.667 
493 26.242 26.080 53.808 8.3333 9.3750 19.271 
494 15.957 92.746 24.983 40.625 64.583 33.333 
495 13.563 9.1545 61.533 2.6042 7.2917 23.438 
496 13.216 24.593 54.939 4.1667 8.8542 19.792 
497 91.885 89.769 79.537 103.12 76.562 79.167 
498 100.00 88.684 29.334 119.27 67.188 44.271 
499 34.090 65.771 20.136 26.042 30.729 17.188 
500 20.961 77.373 9.9329 29.167 42.708 20.833 
501 48.985 66.059 50.556 34.896 35.417 31.250 
502 92.409 9.0241 90.897 69.271 23.438 65.625 
503 40.340 11.090 52.408 12.500 6.7708 18.229 
504 41.367 58.198 88.277 26.562 37.500 62.500 
505 72.147 77.604 91.982 65.625 61.458 82.292 
506 12.761 67.714 50.147 20.833 34.896 29.688 
507 76.617 25.882 91.445 47.917 24.479 65.104 
508 92.734 34.742 50.285 72.917 19.271 29.167 
509 16.114 24.640 92.845 5.7292 19.792 60.417 
510 22.589 72.255 61.762 25.521 42.188 40.625 
511 79.742 58.911 30.090 62.500 29.688 23.438 
512 75.000 100.00 87.265 89.062 93.229 91.667 
513 22.068 58.052 24.509 16.667 23.438 14.062 
514 29.302 20.341 8.3315 7.8125 3.6458 3.1250 
515 75.009 40.707 41.951 48.438 18.229 21.875 
516 76.599 13.357 74.764 45.312 15.625 43.229 
517 10.272 88.110 94.612 36.458 71.875 87.500 
518 34.093 23.728 89.777 11.458 18.750 56.250 
519 29.867 13.694 72.950 7.8125 10.938 34.896 
520 64.983 91.010 77.614 68.750 72.917 70.833 
521 66.135 26.770 20.928 34.375 8.8542 9.8958 
522 36.207 25.309 75.344 12.500 14.583 38.542 
523 78.931 73.018 10.687 70.312 41.667 25.521 
524 30.391 22.415 20.277 8.3333 4.6875 5.2083 
525 11.242 82.956 64.472 31.771 55.729 48.438 
526 80.459 87.628 28.607 82.812 61.979 39.062 
527 27.707 31.870 88.315 9.8958 21.354 55.208 
528 62.060 36.458 46.606 32.292 15.104 20.833 
529 29.542 11.104 53.546 6.7708 6.7708 18.229 
530 68.762 19.114 33.778 35.938 8.3333 13.021 
531 59.637 48.524 31.174 34.375 19.792 16.667 
532 48.298 33.520 100.00 22.396 27.083 75.000 
533 45.598 28.163 66.475 18.229 13.542 31.771 
534 29.918 44.928 90.506 15.625 28.125 61.458 
535 78.316 92.636 77.206 86.458 78.125 74.479 
536 91.281 57.367 55.776 79.688 33.854 38.542 
537 21.692 25.080 26.495 6.2500 5.7292 6.7708 
538 74.304 63.813 94.636 58.854 47.917 79.688 
539 88.481 29.745 32.468 64.062 14.062 18.750 
540 59.486 41.236 87.042 32.812 27.083 58.854 
541 92.045 78.449 60.137 93.229 55.729 53.125 
542 61.977 24.673 6.6648 29.688 7.2917 6.7708 
543 40.162 92.786 90.522 49.479 78.646 86.458 
544 36.748 77.066 93.097 35.938 57.812 79.688 
545 20.161 69.446 29.150 23.438 33.333 20.833 
546 47.187 88.771 0.0000 50.000 57.812 29.688 
547 44.188 43.219 90.474 22.396 27.604 61.979 
548 8.9634 92.695 8.7975 39.583 62.500 30.208 
549 32.387 45.286 72.510 16.146 22.396 39.583 
550 48.879 44.876 39.601 25.000 17.188 17.188 
551 61.287 11.463 77.817 28.646 14.583 42.708 
552 25.396 43.768 11.365 11.979 13.542 7.8125 
553 76.983 53.137 73.131 56.250 32.292 48.958 
554 43.083 65.437 28.359 30.208 31.250 20.312 
555 11.708 51.209 32.796 11.979 18.750 14.583 
556 71.238 41.136 23.296 43.229 15.625 14.062 
557 21.758 7.4731 22.877 4.1667 2.0833 4.1667 
558 23.721 37.471 27.997 8.8542 10.417 8.8542 
559 10.847 0.0000 52.434 1.5625 4.6875 16.146 
560 52.184 32.794 25.185 23.438 9.3750 10.417 
561 25.164 57.264 2.5113 17.708 21.875 10.938 
562 25.531 62.973 45.088 21.354 29.688 25.000 
563 59.406 92.015 9.9812 63.021 64.062 33.854 
564 9.0031 43.883 94.414 9.8958 28.646 65.625 
565 29.380 24.618 40.510 8.8542 7.2917 11.979 
566 56.497 10.252 5.6832 22.917 4.1667 4.6875 
567 70.521 20.255 56.201 39.062 11.458 25.000 
568 81.365 40.212 31.436 56.771 17.708 18.229 
569 56.550 19.280 86.012 25.521 18.229 53.125 
570 25.096 37.115 57.433 9.8958 14.062 24.479 
571 87.229 43.818 88.570 67.188 32.812 67.188 
572 9.0945 89.498 36.178 36.458 59.896 34.896 
573 60.107 91.337 22.013 62.500 63.021 35.938 
574 43.216 91.406 24.486 49.479 61.979 33.854 
575 55.315 58.321 10.243 35.417 24.479 15.104 
576 63.269 92.590 62.685 67.708 71.875 57.812 
577 20.915 89.348 8.0709 38.021 57.812 28.125 
578 33.841 42.636 23.687 15.104 13.021 10.417 
579 82.320 36.054 11.955 56.771 14.062 13.542 
580 78.197 45.345 53.373 54.688 22.917 30.208 
581 87.492 64.105 49.348 77.083 37.500 36.979 
582 80.208 74.738 68.707 73.958 51.562 54.688 
583 12.847 33.194 39.194 6.2500 9.3750 11.979 
584 15.215 55.484 78.368 15.104 30.729 47.917 
585 25.437 6.1049 39.533 5.2083 3.6458 9.8958 
586 57.870 49.584 46.944 33.333 22.396 23.958 
587 67.620 65.849 53.975 51.562 37.500 35.938 
588 26.643 41.991 38.871 11.979 14.583 14.583 
589 42.800 8.7865 22.456 12.500 3.1250 5.2083 
590 57.049 35.385 77.322 28.646 20.312 45.312 
591 36.112 43.832 54.787 16.667 18.229 25.000 
592 62.719 62.395 77.348 44.271 38.542 55.208 
593 60.706 81.416 54.884 55.208 53.125 44.271 
594 90.695 4.9508 56.719 66.146 12.500 29.688 
595 43.936 24.373 43.898 16.146 7.8125 14.583 
596 4.3825 24.210 30.612 3.1250 5.2083 7.2917 
597 53.911 79.942 42.742 48.438 49.479 34.375 
598 90.172 22.149 68.288 66.146 17.708 39.583 
599 77.586 29.345 63.000 49.479 16.667 33.854 
600 60.572 25.668 63.187 29.167 14.062 29.688 
601 97.729 10.927 74.359 78.646 18.750 47.396 
602 57.769 8.0576 53.146 24.479 8.3333 20.312 
603 77.517 92.691 61.488 83.854 74.479 59.896 
604 44.198 38.831 60.002 19.792 16.667 28.125 
605 65.034 81.736 33.440 58.854 52.083 33.854 
606 67.829 69.791 24.123 52.604 37.500 24.479 
607 25.001 99.668 13.437 48.958 75.000 37.500 
608 89.683 25.837 56.548 65.625 16.146 31.250 
609 41.656 51.246 11.867 22.396 18.229 11.458 
610 23.720 38.131 96.840 10.938 26.562 68.750 
611 78.049 6.5915 25.803 46.354 6.7708 11.979 
612 46.116 56.291 55.290 28.125 27.083 30.208 
613 92.023 9.1483 37.844 68.229 10.417 19.271 
614 91.068 89.904 23.497 103.65 66.667 41.146 
615 76.477 27.045 32.402 46.875 11.458 15.104 
616 42.661 5.2197 80.136 14.062 13.021 42.708 
617 6.2584 65.435 77.208 19.271 39.062 51.042 
618 89.710 95.846 52.578 105.73 79.688 58.854 
619 88.397 77.149 94.397 87.500 64.583 89.583 
620 78.888 91.034 93.609 84.375 81.771 95.833 
621 47.820 92.501 59.000 53.125 69.792 53.125 
622 23.826 47.444 80.539 13.542 26.042 49.479 
623 9.0413 12.290 37.978 2.0833 3.6458 8.8542 
624 23.331 16.308 46.267 5.7292 5.7292 14.062 
625 35.756 10.704 35.900 9.3750 4.1667 8.8542 
626 2.9969 77.210 88.879 27.083 54.688 71.875 
627 28.436 75.743 23.117 30.208 40.104 22.396 
628 9.0221 78.989 30.580 28.125 44.792 25.521 
629 8.8030 17.371 0.30943 2.6042 2.0833 1.5625 
630 60.160 36.719 3.7856 31.250 11.979 8.3333 
631 7.0698 90.899 57.373 38.021 65.104 47.396 
632 79.721 9.5270 45.163 49.479 9.3750 19.792 
633 10.879 74.236 95.746 26.562 55.208 80.208 
634 64.217 22.086 74.373 32.292 15.625 41.146 
635 70.017 40.853 76.607 43.229 25.000 47.917 
636 4.7334 24.411 48.203 3.1250 7.8125 15.104 
637 50.973 26.358 13.005 20.833 6.7708 6.2500 
638 2.5724 55.065 90.994 13.542 34.375 64.583 
639 90.879 45.601 57.982 72.917 25.521 36.458 
640 68.145 79.947 44.862 60.938 50.521 38.542 
641 1.4829 67.595 54.158 19.792 35.417 31.771 
642 98.031 12.492 26.865 78.125 10.417 17.188 
643 76.470 93.209 18.886 83.333 68.229 39.062 
644 87.292 66.922 80.462 79.688 47.396 64.583 
645 10.233 96.829 47.233 43.750 72.917 45.312 
646 68.028 67.167 39.031 52.604 36.458 28.125 
647 45.312 94.998 9.2426 54.688 68.750 34.375 
648 77.970 53.709 40.015 57.812 26.042 25.521 
649 39.314 57.645 38.800 23.958 25.521 20.312 
650 57.297 82.865 67.439 53.125 59.375 54.167 
651 37.555 22.599 31.928 11.979 5.7292 8.8542 
652 92.350 23.597 40.911 69.271 13.542 22.396 
653 9.3660 69.976 21.141 21.354 33.854 18.750 
654 51.187 19.140 23.012 19.792 5.2083 7.2917 
655 79.397 80.212 79.858 77.083 60.938 69.792 
656 95.392 55.226 12.927 85.938 27.604 22.396 
657 41.375 92.945 46.055 50.000 67.188 43.229 
658 45.146 82.618 89.901 44.792 64.062 78.125 
659 77.443 63.822 71.275 63.021 40.625 51.042 
660 53.973 31.254 55.289 25.000 13.542 23.958 
661 67.321 92.812 91.875 72.917 82.292 90.625 
662 39.436 37.141 40.709 16.146 13.021 15.104 
663 97.731 46.918 91.781 87.500 38.021 75.000 
664 40.993 6.1961 67.428 11.979 9.3750 29.167 
665 79.123 80.606 57.718 75.000 56.250 49.479 
666 28.913 52.537 29.968 16.667 20.312 14.583 
667 14.658 37.254 73.035 7.8125 17.708 37.500 
668 82.795 16.173 87.132 53.646 20.833 59.896 
669 8.3262 91.659 83.695 39.062 72.917 75.000 
670 45.527 77.031 49.285 39.583 46.354 35.938 
671 9.0854 40.031 62.080 7.8125 16.667 27.604 
672 95.919 70.219 40.212 95.833 43.229 36.979 
673 42.670 92.336 77.786 51.562 73.438 69.792 
674 94.260 40.143 78.486 78.646 28.125 54.688 
675 65.647 53.082 89.436 44.271 35.938 65.625 
676 81.521 18.364 16.183 52.083 8.8542 10.938 
677 8.4681 2.0260 9.4857 1.0417 1.0417 1.0417 
678 30.651 60.550 56.553 21.875 30.208 30.729 
679 53.483 73.043 73.646 42.708 46.875 54.688 
680 90.408 54.335 1.4985 76.562 26.042 19.792 
681 26.668 7.7075 63.496 5.7292 7.8125 25.521 
682 58.933 25.917 94.913 29.167 22.917 67.188 
683 9.8548 0.76371 72.617 2.0833 9.3750 32.292 
684 47.990 75.517 31.176 40.104 42.708 26.042 
685 48.087 9.0808 60.091 17.188 8.3333 24.479 
686 10.988 21.876 19.614 3.1250 4.1667 4.1667 
687 22.598 55.646 65.078 17.188 27.604 34.896 
688 9.0697 82.142 78.531 31.250 58.854 61.458 
689 90.301 42.459 39.120 71.875 20.833 24.479 
690 47.378 36.472 11.171 20.833 10.938 7.2917 
691 49.382 1.8032 9.6600 16.667 2.6042 4.1667 
692 1.9703 20.522 9.5307 2.0833 3.1250 2.6042 
693 81.649 69.738 31.735 70.833 40.104 29.688 
694 34.530 73.626 67.130 31.250 45.312 46.354 
695 81.659 80.940 43.479 79.688 54.167 41.146 
696 10.291 63.628 90.197 18.750 41.146 67.188 
697 9.3825 51.554 18.669 11.458 17.708 10.417 
698 17.762 96.201 72.191 45.312 76.562 64.583 
699 67.560 52.693 6.6256 44.271 21.354 14.583 
700 45.853 7.7641 41.225 15.104 5.2083 12.500 
701 10.950 73.197 73.054 24.479 45.833 50.521 
702 30.698 39.723 1.5250 12.500 10.938 6.2500 
703 81.002 52.333 91.825 63.021 37.500 72.917 
704 51.213 8.0050 98.430 20.833 20.312 69.271 
705 5.4368 7.4372 80.307 2.0833 11.979 41.146 
706 23.483 5.5586 76.358 5.2083 10.938 36.979 
707 32.278 78.328 11.186 33.333 44.271 21.875 
708 4.5816 10.694 55.933 1.5625 6.2500 18.750 
709 89.829 62.524 36.614 79.688 35.417 29.688 
710 80.544 47.439 8.1742 57.812 20.312 15.625 
711 52.750 18.751 64.422 21.875 11.458 29.167 
712 62.358 2.6644 71.659 28.646 11.979 36.458 
713 64.674 45.928 67.561 38.542 24.479 39.062 
714 9.4766 33.184 90.141 6.7708 21.354 57.292 
715 70.466 56.323 80.091 50.000 35.938 57.292 
716 57.237 71.111 99.776 45.833 55.208 89.062 
717 87.665 54.898 77.235 72.917 35.938 56.771 
718 16.330 71.595 0.85939 23.958 34.896 17.188 
719 35.300 79.117 32.908 35.417 45.833 28.125 
720 28.667 65.599 9.3944 23.438 29.167 15.625 
721 6.4435 54.089 70.225 13.021 27.083 39.062 
722 61.839 6.8281 38.810 28.125 6.2500 13.021 
723 26.820 89.870 94.786 42.708 75.521 88.542 
724 5.7523 92.776 20.962 38.542 63.542 32.812 
725 75.073 63.309 7.8752 57.812 31.250 20.312 
726 61.102 20.846 50.693 28.646 9.8958 20.833 
727 22.212 92.446 35.502 41.146 63.542 36.979 
728 92.086 35.290 8.3735 71.875 15.104 15.625 
729 6.1371 56.812 8.6847 13.542 21.354 10.938 
730 17.496 95.134 90.968 44.271 81.250 85.938 
731 97.652 22.856 91.040 80.729 26.562 68.750 
732 49.838 56.677 94.927 31.771 39.583 73.438 
733 52.347 66.189 89.979 38.542 46.354 69.792 
734 9.2025 61.070 60.052 16.667 30.729 32.812 
735 91.322 33.889 95.067 71.875 31.250 74.479 
736 35.535 50.421 47.701 19.271 21.354 22.396 
737 90.687 67.765 92.424 84.896 54.167 82.292 
738 23.140 27.979 7.2528 7.2917 5.7292 3.6458 
739 74.571 37.346 94.340 47.396 29.688 71.354 
740 94.499 74.711 82.469 95.312 58.333 74.479 
741 43.662 60.242 6.7089 27.083 25.521 14.583 
742 94.229 53.959 43.646 82.292 29.688 31.250 
743 88.819 11.383 66.503 63.021 15.104 38.021 
744 32.047 21.909 62.334 9.8958 9.8958 26.042 
745 54.950 92.541 82.626 60.417 75.521 77.083 
746 71.956 56.212 58.905 51.562 30.208 35.938 
747 99.325 70.902 23.244 103.12 43.750 31.771 
748 90.147 23.875 23.537 66.667 11.458 15.104 
749 4.9251 37.670 45.258 6.2500 12.500 16.146 
750 92.003 4.3641 46.508 67.708 11.458 23.438 
751 8.0287 68.481 36.597 20.312 33.854 22.396 
752 94.712 55.380 27.877 84.375 29.167 25.000 
753 59.036 41.793 22.693 31.250 14.583 12.500 
754 75.085 4.1457 81.543 43.229 16.667 50.000 
755 63.301 73.580 81.794 52.083 52.083 66.146 
756 87.889 97.159 72.707 104.69 84.375 76.042 
757 39.453 9.5152 91.318 12.500 16.667 57.812 
758 26.353 18.572 94.841 7.8125 18.750 62.500 
759 19.325 8.4249 4.4960 3.6458 1.0417 1.5625 
760 14.945 80.063 53.214 29.688 49.479 37.500 
761 56.393 7.7606 18.733 22.917 4.1667 6.2500 
762 53.296 91.987 40.941 57.812 66.667 41.146 
763 91.714 5.4089 17.461 66.667 8.8542 12.500 
764 35.214 69.883 47.511 29.167 37.500 29.688 
765 54.174 65.046 39.976 37.500 32.812 26.042 
766 0.48739 73.380 13.583 22.917 36.979 18.750 
767 45.038 24.464 90.440 17.708 20.312 58.333 
768 63.657 41.354 57.623 35.417 19.792 29.167 
769 60.349 99.318 73.525 70.833 85.938 73.438 
770 45.802 53.303 31.659 25.521 21.354 16.667 
771 66.010 80.362 74.383 59.896 57.292 61.458 
772 23.949 64.714 91.592 22.917 42.708 70.312 
773 74.347 9.4171 54.078 42.188 9.8958 23.958 
774 92.529 91.743 63.785 107.81 74.479 64.062 
775 27.251 94.198 55.878 45.833 70.312 50.000 
776 35.570 11.733 10.395 9.3750 2.6042 3.1250 
777 2.5649 51.038 46.451 10.938 20.833 19.792 
778 91.133 22.688 78.884 68.750 21.354 51.042 
779 9.3684 3.2632 25.712 1.0417 2.0833 4.1667 
780 89.782 58.781 98.566 78.646 47.917 87.500 
781 91.178 92.619 40.078 105.21 72.917 49.479 
782 67.918 75.593 60.707 57.812 48.958 46.354 
783 21.214 7.6666 93.134 5.2083 16.667 59.375 
784 16.312 15.496 27.702 3.1250 3.1250 5.7292 
785 55.058 61.647 63.033 36.979 33.333 39.583 
786 64.827 43.743 39.237 37.500 17.708 19.792 
787 76.437 76.558 23.556 68.229 45.833 29.688 
788 23.505 31.715 37.321 8.3333 8.8542 11.979 
789 73.049 16.469 95.896 42.188 22.917 70.312 
790 86.350 91.415 7.6506 95.833 66.667 39.062 
791 75.383 18.628 65.782 44.271 13.542 34.375 
792 69.893 90.723 32.423 72.917 64.062 40.104 
793 48.410 50.555 75.728 27.604 27.604 46.354 
794 66.070 6.5086 22.487 32.292 5.2083 8.3333 
795 56.705 65.792 24.032 40.625 32.292 20.833 
796 76.562 34.662 51.314 48.958 16.667 25.521 
797 79.282 37.864 70.629 53.646 22.396 42.188 
798 61.860 83.501 85.092 58.333 65.625 73.958 
799 55.206 71.204 58.769 42.708 42.188 40.625 
800 41.161 67.679 77.016 31.250 42.188 54.167 
801 39.082 35.254 73.407 16.146 18.229 39.062 
802 54.232 98.131 91.703 64.583 89.583 93.750 
803 52.316 68.565 11.225 37.500 33.854 19.271 
804 13.126 31.651 17.948 5.2083 7.2917 5.2083 
805 41.211 67.640 94.245 31.771 47.396 77.083 
806 6.2691 78.009 44.653 26.562 44.792 31.771 
807 18.472 48.506 58.249 12.500 20.833 27.604 
808 91.193 95.684 89.468 109.90 88.021 95.312 
809 90.576 89.753 96.277 103.12 81.771 100.00 
810 91.055 18.181 4.8873 67.708 9.3750 11.979 
811 9.5158 57.466 44.934 14.583 25.000 21.875 
812 74.253 8.6243 35.462 41.667 7.8125 13.542 
813 30.958 79.592 58.964 34.375 50.521 42.188 
814 64.297 44.200 12.447 36.979 16.667 11.979 
815 90.387 78.022 2.1230 90.104 49.479 30.729 
816 38.276 57.670 62.470 23.438 29.167 35.417 
817 69.306 81.298 10.013 63.021 50.521 28.646 
818 11.786 56.194 98.458 15.104 38.542 77.604 
819 37.361 92.605 63.696 47.396 70.312 56.250 
820 99.099 26.774 11.310 81.771 13.542 16.146 
821 33.690 80.487 44.100 35.938 48.958 34.375 
822 58.378 47.696 96.771 34.375 33.854 75.000 
823 8.3100 80.971 8.1118 29.167 45.833 22.917 
824 36.053 31.424 11.914 12.500 7.2917 5.7292 
825 23.960 74.365 97.709 29.167 55.729 83.854 
826 2.2643 18.895 91.763 3.1250 17.708 56.250 
827 33.230 92.745 7.8538 45.312 63.542 31.250 
828 74.486 38.764 0.43818 46.875 14.062 11.458 
829 72.293 67.732 84.511 58.854 47.917 66.667 
830 71.349 55.278 23.750 49.479 25.000 18.229 
831 10.998 19.916 82.596 4.1667 14.583 45.312 
832 1.5798 33.328 79.698 5.7292 18.229 44.271 
833 61.955 8.9911 90.766 29.167 18.750 59.896 
834 44.195 40.277 31.491 19.792 13.542 12.500 
835 59.060 79.425 21.320 51.042 47.396 27.604 
836 9.8214 2.9467 42.842 1.5625 3.1250 10.417 
END_DATA
CAL    

DESCRIPTOR "Argyll Device Calibration State"
ORIGINATOR "Argyll dispread"
CREATED "Mon Dec 19 14:00:51 2011"
KEYWORD "DEVICE_CLASS"
DEVICE_CLASS "DISPLAY"
KEYWORD "COLOR_REP"
COLOR_REP "RGB"

KEYWORD "RGB_I"
NUMBER_OF_FIELDS 4
BEGIN_DATA_FORMAT
RGB_I RGB_R RGB_G RGB_B 
END_DATA_FORMAT

NUMBER_OF_SETS 256
BEGIN_DATA
0.0000 0.0000 0.0000 0.0000 
3.9216e-03 3.9216e-03 3.9216e-03 3.9216e-03 
7.8431e-03 7.8431e-03 7.8431e-03 7.8431e-03 
0.011765 0.011765 0.011765 0.011765 
0.015686 0.015686 0.015686 0.015686 
0.019608 0.019608 0.019608 0.019608 
0.023529 0.023529 0.023529 0.023529 
0.027451 0.027451 0.027451 0.027451 
0.031373 0.031373 0.031373 0.031373 
0.035294 0.035294 0.035294 0.035294 
0.039216 0.039216 0.039216 0.039216 
0.043137 0.043137 0.043137 0.043137 
0.047059 0.047059 0.047059 0.047059 
0.050980 0.050980 0.050980 0.050980 
0.054902 0.054902 0.054902 0.054902 
0.058824 0.058824 0.058824 0.058824 
0.062745 0.062745 0.062745 0.062745 
0.066667 0.066667 0.066667 0.066667 
0.070588 0.070588 0.070588 0.070588 
0.074510 0.074510 0.074510 0.074510 
0.078431 0.078431 0.078431 0.078431 
0.082353 0.082353 0.082353 0.082353 
0.086275 0.086275 0.086275 0.086275 
0.090196 0.090196 0.090196 0.090196 
0.094118 0.094118 0.094118 0.094118 
0.098039 0.098039 0.098039 0.098039 
0.10196 0.10196 0.10196 0.10196 
0.10588 0.10588 0.10588 0.10588 
0.10980 0.10980 0.10980 0.10980 
0.11373 0.11373 0.11373 0.11373 
0.11765 0.11765 0.11765 0.11765 
0.12157 0.12157 0.12157 0.12157 
0.12549 0.12549 0.12549 0.12549 
0.12941 0.12941 0.12941 0.12941 
0.13333 0.13333 0.13333 0.13333 
0.13725 0.13725 0.13725 0.13725 
0.14118 0.14118 0.14118 0.14118 
0.14510 0.14510 0.14510 0.14510 
0.14902 0.14902 0.14902 0.14902 
0.15294 0.15294 0.15294 0.15294 
0.15686 0.15686 0.15686 0.15686 
0.16078 0.16078 0.16078 0.16078 
0.16471 0.16471 0.16471 0.16471 
0.16863 0.16863 0.16863 0.16863 
0.17255 0.17255 0.17255 0.17255 
0.17647 0.17647 0.17647 0.17647 
0.18039 0.18039 0.18039 0.18039 
0.18431 0.18431 0.18431 0.18431 
0.18824 0.18824 0.18824 0.18824 
0.19216 0.19216 0.19216 0.19216 
0.19608 0.19608 0.19608 0.19608 
0.20000 0.20000 0.20000 0.20000 
0.20392 0.20392 0.20392 0.20392 
0.20784 0.20784 0.20784 0.20784 
0.21176 0.21176 0.21176 0.21176 
0.21569 0.21569 0.21569 0.21569 
0.21961 0.21961 0.21961 0.21961 
0.22353 0.22353 0.22353 0.22353 
0.22745 0.22745 0.22745 0.22745 
0.23137 0.23137 0.23137 0.23137 
0.23529 0.23529 0.23529 0.23529 
0.23922 0.23922 0.23922 0.23922 
0.24314 0.24314 0.24314 0.24314 
0.24706 0.24706 0.24706 0.24706 
0.25098 0.25098 0.25098 0.25098 
0.25490 0.25490 0.25490 0.25490 
0.25882 0.25882 0.25882 0.25882 
0.26275 0.26275 0.26275 0.26275 
0.26667 0.26667 0.26667 0.26667 
0.27059 0.27059 0.27059 0.27059 
0.27451 0.27451 0.27451 0.27451 
0.27843 0.27843 0.27843 0.27843 
0.28235 0.28235 0.28235 0.28235 
0.28627 0.28627 0.28627 0.28627 
0.29020 0.29020 0.29020 0.29020 
0.29412 0.29412 0.29412 0.29412 
0.29804 0.29804 0.29804 0.29804 
0.30196 0.30196 0.30196 0.30196 
0.30588 0.30588 0.30588 0.30588 
0.30980 0.30980 0.30980 0.30980 
0.31373 0.31373 0.31373 0.31373 
0.31765 0.31765 0.31765 0.31765 
0.32157 0.32157 0.32157 0.32157 
0.32549 0.32549 0.32549 0.32549 
0.32941 0.32941 0.32941 0.32941 
0.33333 0.33333 0.33333 0.33333 
0.33725 0.33725 0.33725 0.33725 
0.34118 0.34118 0.34118 0.34118 
0.34510 0.34510 0.34510 0.34510 
0.34902 0.34902 0.34902 0.34902 
0.35294 0.35294 0.35294 0.35294 
0.35686 0.35686 0.35686 0.35686 
0.36078 0.36078 0.36078 0.36078 
0.36471 0.36471 0.36471 0.36471 
0.36863 0.36863 0.36863 0.36863 
0.37255 0.37255 0.37255 0.37255 
0.37647 0.37647 0.37647 0.37647 
0.38039 0.38039 0.38039 0.38039 
0.38431 0.38431 0.38431 0.38431 
0.38824 0.38824 0.38824 0.38824 
0.39216 0.39216 0.39216 0.39216 
0.39608 0.39608 0.39608 0.39608 
0.40000 0.40000 0.40000 0.40000 
0.40392 0.40392 0.40392 0.40392 
0.40784 0.40784 0.40784 0.40784 
0.41176 0.41176 0.41176 0.41176 
0.41569 0.41569 0.41569 0.41569 
0.41961 0.41961 0.41961 0.41961 
0.42353 0.42353 0.42353 0.42353 
0.42745 0.42745 0.42745 0.42745 
0.43137 0.43137 0.43137 0.43137 
0.43529 0.43529 0.43529 0.43529 
0.43922 0.43922 0.43922 0.43922 
0.44314 0.44314 0.44314 0.44314 
0.44706 0.44706 0.44706 0.44706 
0.45098 0.45098 0.45098 0.45098 
0.45490 0.45490 0.45490 0.45490 
0.45882 0.45882 0.45882 0.45882 
0.46275 0.46275 0.46275 0.46275 
0.46667 0.46667 0.46667 0.46667 
0.47059 0.47059 0.47059 0.47059 
0.47451 0.47451 0.47451 0.47451 
0.47843 0.47843 0.47843 0.47843 
0.48235 0.48235 0.48235 0.48235 
0.48627 0.48627 0.48627 0.48627 
0.49020 0.49020 0.49020 0.49020 
0.49412 0.49412 0.49412 0.49412 
0.49804 0.49804 0.49804 0.49804 
0.50196 0.50196 0.50196 0.50196 
0.50588 0.50588 0.50588 0.50588 
0.50980 0.50980 0.50980 0.50980 
0.51373 0.51373 0.51373 0.51373 
0.51765 0.51765 0.51765 0.51765 
0.52157 0.52157 0.52157 0.52157 
0.52549 0.52549 0.52549 0.52549 
0.52941 0.52941 0.52941 0.52941 
0.53333 0.53333 0.53333 0.53333 
0.53725 0.53725 0.53725 0.53725 
0.54118 0.54118 0.54118 0.54118 
0.54510 0.54510 0.54510 0.54510 
0.54902 0.54902 0.54902 0.54902 
0.55294 0.55294 0.55294 0.55294 
0.55686 0.55686 0.55686 0.55686 
0.56078 0.56078 0.56078 0.56078 
0.56471 0.56471 0.56471 0.56471 
0.56863 0.56863 0.56863 0.56863 
0.57255 0.57255 0.57255 0.57255 
0.57647 0.57647 0.57647 0.57647 
0.58039 0.58039 0.58039 0.58039 
0.58431 0.58431 0.58431 0.58431 
0.58824 0.58824 0.58824 0.58824 
0.59216 0.59216 0.59216 0.59216 
0.59608 0.59608 0.59608 0.59608 
0.60000 0.60000 0.60000 0.60000 
0.60392 0.60392 0.60392 0.60392 
0.60784 0.60784 0.60784 0.60784 
0.61176 0.61176 0.61176 0.61176 
0.61569 0.61569 0.61569 0.61569 
0.61961 0.61961 0.61961 0.61961 
0.62353 0.62353 0.62353 0.62353 
0.62745 0.62745 0.62745 0.62745 
0.63137 0.63137 0.63137 0.63137 
0.63529 0.63529 0.63529 0.63529 
0.63922 0.63922 0.63922 0.63922 
0.64314 0.64314 0.64314 0.64314 
0.64706 0.64706 0.64706 0.64706 
0.65098 0.65098 0.65098 0.65098 
0.65490 0.65490 0.65490 0.65490 
0.65882 0.65882 0.65882 0.65882 
0.66275 0.66275 0.66275 0.66275 
0.66667 0.66667 0.66667 0.66667 
0.67059 0.67059 0.67059 0.67059 
0.67451 0.67451 0.67451 0.67451 
0.67843 0.67843 0.67843 0.67843 
0.68235 0.68235 0.68235 0.68235 
0.68627 0.68627 0.68627 0.68627 
0.69020 0.69020 0.69020 0.69020 
0.69412 0.69412 0.69412 0.69412 
0.69804 0.69804 0.69804 0.69804 
0.70196 0.70196 0.70196 0.70196 
0.70588 0.70588 0.70588 0.70588 
0.70980 0.70980 0.70980 0.70980 
0.71373 0.71373 0.71373 0.71373 
0.71765 0.71765 0.71765 0.71765 
0.72157 0.72157 0.72157 0.72157 
0.72549 0.72549 0.72549 0.72549 
0.72941 0.72941 0.72941 0.72941 
0.73333 0.73333 0.73333 0.73333 
0.73725 0.73725 0.73725 0.73725 
0.74118 0.74118 0.74118 0.74118 
0.74510 0.74510 0.74510 0.74510 
0.74902 0.74902 0.74902 0.74902 
0.75294 0.75294 0.75294 0.75294 
0.75686 0.75686 0.75686 0.75686 
0.76078 0.76078 0.76078 0.76078 
0.76471 0.76471 0.76471 0.76471 
0.76863 0.76863 0.76863 0.76863 
0.77255 0.77255 0.77255 0.77255 
0.77647 0.77647 0.77647 0.77647 
0.78039 0.78039 0.78039 0.78039 
0.78431 0.78431 0.78431 0.78431 
0.78824 0.78824 0.78824 0.78824 
0.79216 0.79216 0.79216 0.79216 
0.79608 0.79608 0.79608 0.79608 
0.80000 0.80000 0.80000 0.80000 
0.80392 0.80392 0.80392 0.80392 
0.80784 0.80784 0.80784 0.80784 
0.81176 0.81176 0.81176 0.81176 
0.81569 0.81569 0.81569 0.81569 
0.81961 0.81961 0.81961 0.81961 
0.82353 0.82353 0.82353 0.82353 
0.82745 0.82745 0.82745 0.82745 
0.83137 0.83137 0.83137 0.83137 
0.83529 0.83529 0.83529 0.83529 
0.83922 0.83922 0.83922 0.83922 
0.84314 0.84314 0.84314 0.84314 
0.84706 0.84706 0.84706 0.84706 
0.85098 0.85098 0.85098 0.85098 
0.85490 0.85490 0.85490 0.85490 
0.85882 0.85882 0.85882 0.85882 
0.86275 0.86275 0.86275 0.86275 
0.86667 0.86667 0.86667 0.86667 
0.87059 0.87059 0.87059 0.87059 
0.87451 0.87451 0.87451 0.87451 
0.87843 0.87843 0.87843 0.87843 
0.88235 0.88235 0.88235 0.88235 
0.88627 0.88627 0.88627 0.88627 
0.89020 0.89020 0.89020 0.89020 
0.89412 0.89412 0.89412 0.89412 
0.89804 0.89804 0.89804 0.89804 
0.90196 0.90196 0.90196 0.90196 
0.90588 0.90588 0.90588 0.90588 
0.90980 0.90980 0.90980 0.90980 
0.91373 0.91373 0.91373 0.91373 
0.91765 0.91765 0.91765 0.91765 
0.92157 0.92157 0.92157 0.92157 
0.92549 0.92549 0.92549 0.92549 
0.92941 0.92941 0.92941 0.92941 
0.93333 0.93333 0.93333 0.93333 
0.93725 0.93725 0.93725 0.93725 
0.94118 0.94118 0.94118 0.94118 
0.94510 0.94510 0.94510 0.94510 
0.94902 0.94902 0.94902 0.94902 
0.95294 0.95294 0.95294 0.95294 
0.95686 0.95686 0.95686 0.95686 
0.96078 0.96078 0.96078 0.96078 
0.96471 0.96471 0.96471 0.96471 
0.96863 0.96863 0.96863 0.96863 
0.97255 0.97255 0.97255 0.97255 
0.97647 0.97647 0.97647 0.97647 
0.98039 0.98039 0.98039 0.98039 
0.98431 0.98431 0.98431 0.98431 
0.98824 0.98824 0.98824 0.98824 
0.99216 0.99216 0.99216 0.99216 
0.99608 0.99608 0.99608 0.99608 
1.0000 1.0000 1.0000 1.0000 
END_DATA
