CTI3   

DESCRIPTOR "Argyll Calibration Target chart information 3"
ORIGINATOR "Argyll dispread"
CREATED "Tue Jan  3 15:09:04 2012"
KEYWORD "DEVICE_CLASS"
DEVICE_CLASS "DISPLAY"
KEYWORD "COLOR_REP"
COLOR_REP "RGB_XYZ"
KEYWORD "TARGET_INSTRUMENT"
TARGET_INSTRUMENT "Hughski ColorHug"
KEYWORD "INSTRUMENT_TYPE_SPECTRAL"
INSTRUMENT_TYPE_SPECTRAL "NO"
KEYWORD "LUMINANCE_XYZ_CDM2"
LUMINANCE_XYZ_CDM2 "48.065186 39.825439 42.800903"
KEYWORD "NORMALIZED_TO_Y_100"
NORMALIZED_TO_Y_100 "YES"

NUMBER_OF_FIELDS 7
BEGIN_DATA_FORMAT
SAMPLE_ID RGB_R RGB_G RGB_B XYZ_X XYZ_Y XYZ_Z 
END_DATA_FORMAT

NUMBER_OF_SETS 836
BEGIN_DATA
1 100.00 100.00 100.00 120.69 100.00 107.47 
2 100.00 100.00 100.00 120.69 100.00 107.47 
3 100.00 100.00 100.00 120.11 100.00 108.05 
4 100.00 100.00 100.00 120.11 100.00 108.62 
5 33.330 32.622 30.968 10.345 8.6207 8.6207 
6 100.00 0.0000 100.00 72.989 26.437 75.287 
7 100.00 100.00 0.0000 116.67 82.184 45.402 
8 0.0000 100.00 100.00 41.379 91.379 97.126 
9 0.0000 100.00 0.0000 40.230 71.839 32.759 
10 0.0000 0.0000 100.00 2.8736 18.391 63.793 
11 100.00 0.0000 0.0000 71.264 8.6207 12.069 
12 0.0000 0.0000 0.0000 0.57471 0.57471 0.57471 
13 0.0000 52.455 100.00 11.494 34.483 71.264 
14 100.00 0.0000 50.300 72.989 12.069 24.138 
15 100.00 54.739 100.00 85.632 44.253 83.333 
16 100.00 52.128 0.0000 82.759 24.713 18.966 
17 0.0000 0.0000 46.181 1.1494 3.4483 10.920 
18 0.0000 51.141 0.0000 9.1954 15.517 7.4713 
19 0.0000 100.00 51.348 40.805 76.437 45.977 
20 100.00 100.00 52.037 117.24 85.632 59.195 
21 49.216 0.0000 0.0000 14.368 2.2989 2.8736 
22 56.159 100.00 0.0000 59.195 74.713 36.207 
23 49.226 100.00 100.00 55.747 91.954 100.00 
24 44.487 0.0000 100.00 13.218 20.115 66.092 
25 100.00 44.498 52.029 79.310 23.563 30.460 
26 48.926 48.544 100.00 24.138 33.333 72.414 
27 51.368 100.00 47.250 57.471 76.437 46.552 
28 49.893 0.0000 49.033 15.517 5.7471 14.368 
29 53.109 51.372 0.0000 25.862 17.816 9.7701 
30 0.0000 58.587 53.943 12.644 24.713 24.138 
31 100.00 28.065 100.00 77.011 31.034 76.437 
32 0.0000 0.0000 72.874 1.7241 8.6207 28.736 
33 0.0000 26.758 100.00 4.5977 22.414 64.943 
34 0.0000 25.426 0.0000 2.8736 4.0230 2.2989 
35 72.508 0.0000 100.00 35.057 22.414 68.391 
36 100.00 27.395 0.0000 74.138 13.218 13.793 
37 74.470 100.00 100.00 79.310 95.977 102.30 
38 100.00 0.0000 25.728 70.690 9.7701 14.943 
39 73.862 0.0000 0.0000 34.483 4.5977 6.3218 
40 100.00 100.00 25.402 116.67 82.184 48.851 
41 0.0000 75.751 100.00 22.989 54.598 81.034 
42 0.0000 75.172 0.0000 21.264 35.632 17.241 
43 0.0000 100.00 25.864 40.230 72.414 36.207 
44 100.00 0.0000 74.801 72.989 17.241 42.529 
45 0.0000 100.00 75.421 41.379 80.460 64.943 
46 24.577 0.0000 0.0000 4.0230 1.1494 1.1494 
47 26.321 100.00 0.0000 44.253 72.414 33.333 
48 100.00 75.835 0.0000 97.126 45.402 28.736 
49 100.00 100.00 77.061 120.11 90.805 78.161 
50 71.263 100.00 0.0000 74.713 76.437 37.931 
51 0.0000 0.0000 15.614 0.57471 1.1494 1.7241 
52 0.0000 30.049 70.936 4.0230 13.218 29.310 
53 100.00 77.691 100.00 98.276 66.092 93.103 
54 24.486 100.00 100.00 45.402 91.954 97.126 
55 100.00 62.784 31.909 86.782 33.908 27.586 
56 29.552 0.0000 100.00 7.4713 18.966 64.943 
57 32.980 70.921 100.00 25.862 50.575 79.310 
58 0.0000 27.681 40.241 2.8736 6.8966 10.345 
59 67.901 71.021 100.00 48.851 52.874 83.333 
60 28.154 100.00 67.829 45.977 78.736 58.046 
61 71.637 100.00 70.001 75.862 82.759 64.943 
62 58.822 58.763 53.586 33.908 27.011 27.586 
63 33.466 30.480 0.0000 9.7701 6.3218 4.0230 
64 100.00 73.795 71.277 95.977 51.149 55.172 
65 68.394 29.692 0.0000 32.759 8.6207 7.4713 
66 70.399 0.0000 29.039 31.609 5.1724 9.1954 
67 28.078 0.0000 26.956 5.1724 2.2989 4.5977 
68 28.532 72.339 0.0000 24.138 33.908 16.092 
69 100.00 30.941 26.496 75.287 14.943 17.241 
70 34.597 0.0000 73.611 7.4713 9.7701 31.034 
71 71.573 0.0000 72.408 33.333 12.069 33.908 
72 0.0000 71.029 29.412 18.391 32.759 18.966 
73 68.386 75.008 0.0000 50.000 39.655 21.839 
74 68.088 27.309 100.00 33.333 25.862 70.690 
75 100.00 26.457 73.749 74.138 21.264 43.678 
76 74.344 100.00 27.392 77.586 77.586 42.529 
77 27.558 100.00 28.197 44.828 72.989 37.931 
78 31.196 27.465 100.00 9.7701 22.989 66.667 
79 0.0000 75.521 72.824 22.414 44.253 45.977 
80 0.0000 50.930 25.553 9.1954 16.667 10.345 
81 32.060 33.584 64.033 10.345 13.218 25.287 
82 81.666 55.380 0.0000 55.747 22.989 15.517 
83 68.257 32.751 58.286 33.333 14.368 25.287 
84 0.0000 55.248 81.585 12.069 29.310 45.977 
85 73.781 52.099 100.00 45.977 38.506 75.287 
86 100.00 50.537 82.952 82.759 35.057 58.046 
87 23.550 0.0000 50.439 4.0230 4.5977 13.218 
88 31.335 62.746 31.114 19.540 26.437 16.667 
89 100.00 18.310 49.418 72.414 13.793 24.713 
90 26.498 48.404 0.0000 11.494 14.368 7.4713 
91 47.910 100.00 85.744 54.598 86.782 78.736 
92 71.829 47.313 31.811 39.655 18.966 16.092 
93 31.304 64.132 69.316 21.264 33.333 39.080 
94 80.403 0.0000 54.321 42.529 9.7701 22.414 
95 18.455 50.036 100.00 12.644 33.333 71.264 
96 50.653 100.00 16.345 55.747 73.563 36.782 
97 80.121 100.00 52.261 86.207 81.034 54.023 
98 0.0000 22.540 19.289 2.2989 3.4483 3.4483 
99 100.00 75.273 46.886 96.552 48.276 39.080 
100 0.0000 78.618 56.625 24.138 44.828 34.483 
101 51.137 80.627 100.00 42.529 63.218 84.483 
102 48.446 0.0000 17.864 13.793 2.2989 4.5977 
103 100.00 50.023 21.211 81.609 24.138 20.690 
104 50.115 20.118 0.0000 16.092 4.5977 4.0230 
105 58.099 72.426 33.158 39.655 37.356 24.138 
106 19.364 100.00 50.197 42.529 77.011 45.977 
107 50.683 19.177 100.00 17.816 22.414 67.816 
108 53.370 0.0000 81.576 17.816 13.793 40.805 
109 47.768 76.245 0.0000 34.483 39.080 19.540 
110 0.0000 18.927 55.503 2.2989 6.8966 17.241 
111 0.0000 13.277 0.0000 1.1494 1.7241 1.1494 
112 72.862 72.473 75.625 54.598 45.977 52.874 
113 100.00 13.904 0.0000 72.414 9.7701 12.644 
114 86.349 0.0000 100.00 52.299 23.563 71.839 
115 100.00 41.941 100.00 80.460 36.782 79.310 
116 100.00 81.785 16.464 101.72 52.874 33.333 
117 0.0000 44.063 52.596 7.4713 15.517 18.966 
118 0.0000 0.0000 58.917 1.1494 5.7471 17.816 
119 59.250 24.551 29.789 23.563 6.8966 9.7701 
120 82.730 82.874 100.00 74.713 70.115 91.379 
121 80.039 0.0000 12.618 41.379 5.1724 8.0460 
122 60.957 47.729 77.817 31.609 26.437 43.678 
123 100.00 0.0000 38.618 71.264 10.920 18.966 
124 0.0000 40.090 100.00 7.4713 28.161 67.816 
125 0.0000 15.283 82.322 2.2989 13.218 39.655 
126 17.592 81.726 100.00 28.736 63.218 85.057 
127 100.00 14.130 100.00 73.563 28.161 76.437 
128 15.261 100.00 82.059 42.529 83.333 72.989 
129 47.770 79.418 60.389 37.931 47.701 40.230 
130 18.768 16.429 0.0000 4.0230 2.2989 1.7241 
131 55.634 100.00 65.763 60.345 80.460 59.195 
132 100.00 100.00 38.541 118.97 82.759 52.299 
133 17.421 0.0000 83.497 3.4483 12.069 40.805 
134 17.237 16.758 100.00 5.1724 20.115 64.368 
135 0.0000 15.067 30.039 1.7241 2.8736 5.1724 
136 0.0000 0.0000 86.505 2.2989 12.644 43.678 
137 75.736 72.799 50.020 57.471 41.954 33.908 
138 100.00 83.323 85.529 102.30 67.816 76.437 
139 100.00 100.00 64.894 117.24 87.931 68.391 
140 81.980 84.914 0.0000 72.414 53.448 29.885 
141 0.0000 63.757 15.490 14.368 25.287 13.218 
142 49.514 66.135 100.00 31.609 46.552 78.736 
143 100.00 0.0000 61.862 71.839 14.368 32.184 
144 24.308 45.410 49.831 10.920 16.092 18.966 
145 15.963 0.0000 17.047 1.7241 1.1494 2.2989 
146 87.497 100.00 100.00 98.276 95.977 104.60 
147 52.099 25.003 75.752 19.540 14.943 35.632 
148 14.909 81.162 0.0000 26.437 43.103 19.540 
149 0.0000 34.792 14.626 4.0230 7.4713 4.5977 
150 48.390 45.075 22.552 21.264 14.368 10.345 
151 83.545 65.965 100.00 64.943 50.575 82.759 
152 16.226 62.345 0.0000 15.517 24.138 11.494 
153 63.222 0.0000 14.914 24.138 3.4483 5.7471 
154 80.449 13.446 0.0000 42.529 6.3218 8.0460 
155 83.917 41.562 0.0000 52.299 15.517 12.644 
156 100.00 60.448 46.300 86.207 33.333 32.759 
157 15.584 0.0000 34.795 2.2989 2.2989 6.3218 
158 17.144 65.121 100.00 18.966 44.253 76.437 
159 83.602 55.334 62.667 59.195 29.310 36.782 
160 0.0000 82.190 14.220 25.862 44.828 21.264 
161 25.132 74.856 50.616 24.713 39.655 29.885 
162 0.0000 13.769 100.00 2.8736 19.540 63.793 
163 87.181 0.0000 0.0000 51.724 6.8966 8.6207 
164 0.0000 100.00 39.190 40.805 74.713 39.655 
165 78.047 65.914 19.865 56.322 32.184 20.115 
166 100.00 63.961 15.865 88.506 33.908 24.713 
167 100.00 45.955 36.032 79.310 22.989 23.563 
168 15.926 100.00 16.890 41.379 73.563 34.483 
169 41.459 100.00 0.0000 50.000 74.138 34.483 
170 48.707 37.288 48.139 18.391 13.218 17.816 
171 83.381 100.00 13.285 88.506 78.736 41.954 
172 78.129 25.303 75.621 42.529 17.816 40.230 
173 12.396 0.0000 0.0000 1.1494 0.57471 0.57471 
174 37.607 48.336 83.346 17.241 26.437 48.276 
175 35.588 15.356 0.0000 8.0460 2.8736 2.2989 
176 61.245 100.00 100.00 66.092 91.954 100.57 
177 100.00 67.290 87.195 91.954 48.851 70.115 
178 0.0000 0.0000 30.615 0.57471 1.7241 4.5977 
179 35.187 81.789 83.323 33.908 56.897 61.494 
180 39.525 80.194 22.879 33.908 44.253 22.989 
181 50.634 34.593 0.0000 19.540 8.6207 5.7471 
182 14.175 100.00 63.146 41.954 78.736 53.448 
183 83.493 17.728 34.574 47.126 9.7701 13.793 
184 23.463 22.014 79.943 6.3218 13.793 37.931 
185 18.066 31.847 0.0000 5.7471 6.3218 3.4483 
186 87.201 100.00 81.361 95.977 90.230 80.460 
187 0.0000 100.00 87.950 40.805 85.632 79.310 
188 34.476 17.888 46.220 8.0460 6.3218 12.644 
189 18.277 0.0000 67.390 2.8736 8.0460 24.713 
190 100.00 87.972 0.0000 105.75 60.920 36.207 
191 82.925 34.850 100.00 51.724 30.460 74.713 
192 0.0000 88.016 100.00 31.609 70.115 87.931 
193 36.104 85.655 100.00 37.931 67.816 87.356 
194 60.981 0.0000 0.0000 22.989 2.8736 4.5977 
195 51.466 61.826 78.106 30.460 34.483 47.701 
196 78.427 31.983 22.175 43.678 11.494 11.494 
197 66.017 44.321 0.0000 33.908 14.368 9.7701 
198 83.941 0.0000 84.177 48.276 17.816 48.276 
199 20.158 46.612 23.269 10.345 13.793 9.1954 
200 0.0000 100.00 62.618 41.379 78.736 52.874 
201 33.832 0.0000 13.933 6.8966 1.7241 2.2989 
202 100.00 17.286 16.322 72.414 10.920 13.793 
203 0.0000 42.204 83.926 7.4713 22.414 45.977 
204 0.0000 87.774 0.0000 29.310 52.299 24.138 
205 64.988 0.0000 59.017 26.437 8.6207 22.414 
206 14.677 0.0000 100.00 3.4483 18.391 64.368 
207 88.934 82.673 35.021 81.609 52.874 36.207 
208 0.0000 63.778 100.00 16.092 43.103 75.862 
209 83.429 17.674 100.00 48.851 25.287 72.414 
210 30.899 100.00 85.668 47.126 84.483 77.586 
211 83.680 0.0000 41.016 47.701 8.0460 16.092 
212 100.00 63.515 0.0000 88.506 32.759 22.989 
213 85.074 69.987 0.0000 67.816 36.782 21.839 
214 20.801 45.524 69.018 10.345 20.115 31.034 
215 21.382 82.482 73.017 29.885 54.023 50.000 
216 100.00 15.128 64.249 72.989 16.092 33.333 
217 36.522 0.0000 58.427 8.0460 6.3218 18.391 
218 22.466 81.296 33.007 28.161 45.977 25.862 
219 62.531 87.152 0.0000 53.448 54.598 27.586 
220 84.120 85.397 67.886 77.011 62.069 55.172 
221 18.870 27.336 45.389 5.1724 7.4713 13.218 
222 66.439 100.00 14.444 68.391 75.862 38.506 
223 41.636 22.147 19.003 12.069 4.5977 5.1724 
224 61.271 100.00 81.940 64.368 86.207 75.862 
225 86.013 100.00 0.0000 93.678 77.586 41.954 
226 37.570 0.0000 0.0000 8.0460 1.7241 1.7241 
227 100.00 16.132 84.102 73.563 21.839 54.023 
228 0.0000 100.00 13.619 40.805 71.264 33.333 
229 38.905 100.00 56.471 50.000 77.586 50.575 
230 100.00 15.382 34.563 73.563 11.494 17.816 
231 36.656 14.908 100.00 10.345 20.690 64.943 
232 0.0000 62.593 66.608 14.943 31.034 34.483 
233 66.347 12.528 100.00 29.885 22.414 67.816 
234 100.00 43.375 69.233 79.310 27.011 41.954 
235 100.00 56.360 61.236 84.483 32.759 39.655 
236 0.0000 86.194 44.955 29.310 52.874 32.759 
237 64.527 87.262 100.00 56.897 73.563 91.954 
238 34.411 0.0000 42.471 6.8966 4.0230 10.345 
239 80.230 59.707 85.120 55.747 38.506 59.770 
240 20.625 19.056 14.791 4.0230 3.4483 2.8736 
241 15.341 34.221 100.00 6.8966 24.713 67.816 
242 36.777 0.0000 87.905 9.1954 13.793 47.701 
243 34.598 56.247 100.00 19.540 37.356 74.138 
244 20.860 67.629 17.418 19.540 29.310 14.943 
245 44.958 60.843 18.054 24.713 24.138 14.368 
246 37.421 60.193 0.0000 20.690 22.414 11.494 
247 84.011 33.849 42.612 51.724 14.943 19.540 
248 17.241 60.339 37.743 14.943 24.138 17.816 
249 50.650 17.261 53.278 16.667 8.0460 17.241 
250 45.505 48.926 65.152 21.264 22.414 30.460 
251 44.567 84.081 39.649 39.080 51.149 30.460 
252 100.00 86.339 72.054 105.75 67.816 63.218 
253 68.140 61.135 0.0000 42.529 26.437 14.943 
254 17.930 66.986 81.403 19.540 39.080 51.149 
255 39.242 60.215 48.926 21.839 26.437 23.563 
256 20.099 18.770 62.967 4.0230 9.1954 22.414 
257 34.553 100.00 14.582 46.552 73.563 35.057 
258 87.345 0.0000 66.694 51.724 13.218 32.184 
259 0.0000 43.714 39.842 6.8966 13.218 13.218 
260 100.00 37.705 13.955 77.011 16.667 16.667 
261 31.265 86.993 0.0000 35.057 51.149 24.713 
262 51.402 82.661 81.338 43.103 57.471 61.494 
263 100.00 100.00 12.984 118.97 80.460 45.402 
264 0.0000 37.859 0.0000 5.1724 8.6207 4.0230 
265 62.092 58.215 100.00 37.356 41.379 76.437 
266 86.186 100.00 64.100 95.402 85.632 62.644 
267 100.00 35.251 85.898 77.586 28.161 57.471 
268 63.182 89.992 41.974 56.897 61.494 37.931 
269 13.504 100.00 0.0000 41.379 72.414 32.759 
270 100.00 0.0000 13.228 71.264 8.6207 12.644 
271 63.881 40.826 100.00 32.184 31.609 71.839 
272 69.387 84.838 20.792 58.046 52.874 29.310 
273 0.0000 70.279 45.136 17.816 33.908 24.713 
274 79.094 64.754 40.908 55.747 33.333 26.437 
275 62.385 54.099 17.396 33.333 20.690 13.793 
276 64.408 14.621 0.0000 25.862 4.5977 5.1724 
277 70.028 15.606 44.651 32.184 8.0460 15.517 
278 0.0000 63.544 0.0000 14.943 24.138 12.069 
279 83.475 47.274 20.502 54.598 18.966 15.517 
280 55.866 0.0000 32.671 19.540 4.0230 8.6207 
281 58.007 0.0000 100.00 22.414 20.690 66.667 
282 100.00 0.0000 87.698 72.989 21.839 56.897 
283 0.0000 13.792 67.215 2.2989 8.0460 24.713 
284 84.123 17.001 58.549 48.851 12.644 25.862 
285 59.579 32.873 15.966 25.287 9.1954 8.0460 
286 10.410 32.998 28.659 5.1724 7.4713 7.4713 
287 17.231 40.031 85.650 8.6207 21.839 47.701 
288 37.568 41.561 10.108 13.793 11.494 6.8966 
289 0.0000 69.015 85.092 18.391 41.954 56.322 
290 14.442 100.00 36.187 41.379 74.138 39.655 
291 100.00 40.549 0.0000 76.437 17.816 16.092 
292 82.143 45.435 78.429 52.299 27.011 47.701 
293 52.674 0.0000 67.300 17.241 9.1954 27.586 
294 0.0000 87.868 66.793 31.034 58.046 47.701 
295 86.530 100.00 40.524 94.828 79.885 50.000 
296 71.777 85.586 67.232 62.644 59.770 52.299 
297 43.216 100.00 31.671 51.724 74.138 39.655 
298 39.245 32.908 85.845 13.793 19.540 47.701 
299 0.0000 45.662 67.543 8.0460 18.966 29.885 
300 12.161 100.00 100.00 43.103 91.379 95.402 
301 67.049 0.0000 85.516 28.736 15.517 47.126 
302 100.00 89.041 100.00 109.20 81.034 100.00 
303 20.246 60.698 56.526 16.092 27.586 27.011 
304 52.177 55.457 40.416 27.011 22.414 18.966 
305 72.617 87.018 83.932 64.368 67.816 69.540 
306 40.512 16.723 66.475 10.920 10.345 25.862 
307 68.507 49.232 50.605 37.356 21.839 24.713 
308 65.622 100.00 54.525 67.241 79.885 52.874 
309 54.115 37.240 66.394 22.414 17.241 29.885 
310 100.00 76.138 31.267 95.977 47.126 33.908 
311 54.728 65.623 0.0000 32.759 28.161 14.943 
312 63.126 12.526 64.370 25.862 10.345 26.437 
313 72.827 18.080 23.704 35.057 6.8966 9.1954 
314 23.268 15.278 34.947 4.5977 4.0230 7.4713 
315 87.648 68.954 59.645 71.839 40.805 40.230 
316 0.0000 85.595 85.198 29.885 61.494 64.943 
317 35.798 84.371 69.210 35.057 55.747 48.276 
318 36.062 47.494 35.919 15.517 16.092 13.218 
319 86.083 36.277 59.152 55.172 18.966 29.310 
320 58.210 100.00 30.361 62.069 77.011 40.230 
321 46.745 14.614 32.317 13.793 4.5977 8.0460 
322 81.573 73.869 86.954 66.092 54.023 67.816 
323 85.991 49.387 48.206 58.621 23.563 26.437 
324 28.062 87.906 19.654 33.908 53.448 27.011 
325 68.992 17.993 85.124 32.184 17.816 48.276 
326 100.00 66.147 100.00 91.379 54.023 87.356 
327 33.358 64.806 84.517 22.989 38.506 54.598 
328 41.351 17.736 80.522 12.069 13.793 39.655 
329 100.00 100.00 88.719 118.39 95.402 93.103 
330 66.336 0.0000 44.320 27.586 6.3218 13.793 
331 64.850 67.090 12.293 43.103 31.034 17.816 
332 15.262 31.268 63.277 5.1724 12.069 23.563 
333 15.008 43.663 37.300 8.0460 13.793 12.069 
334 0.0000 57.895 38.078 12.069 22.989 16.092 
335 66.599 58.458 67.871 40.230 31.034 38.506 
336 59.191 18.651 15.215 22.414 5.1724 6.3218 
337 66.781 31.140 84.629 31.609 20.115 48.851 
338 88.033 85.158 52.140 83.908 58.621 45.402 
339 36.882 100.00 100.00 50.000 90.230 98.276 
340 26.102 33.094 17.006 7.4713 7.4713 5.1724 
341 56.309 36.861 35.862 24.138 12.069 13.218 
342 45.839 65.587 67.033 28.161 35.057 37.931 
343 83.709 81.172 16.406 73.563 48.851 28.736 
344 0.0000 48.132 13.005 8.0460 14.368 7.4713 
345 87.176 50.021 100.00 62.644 39.080 77.586 
346 51.219 84.244 13.730 43.103 49.425 24.713 
347 60.606 71.415 48.406 41.379 38.506 29.885 
348 0.0000 11.359 12.718 1.1494 1.7241 2.2989 
349 86.429 49.705 33.145 59.195 22.414 20.115 
350 34.056 40.958 100.00 13.793 29.310 68.966 
351 100.00 30.557 59.628 74.713 18.966 32.759 
352 88.497 26.902 13.449 54.598 10.920 12.069 
353 14.167 51.980 88.218 12.069 29.885 54.598 
354 13.784 12.983 49.370 2.2989 5.1724 13.218 
355 15.018 88.441 48.062 32.184 56.322 36.207 
356 87.790 25.769 89.215 55.747 23.563 58.046 
357 0.0000 33.206 55.865 4.5977 11.494 18.966 
358 74.324 76.029 35.536 58.046 42.529 29.310 
359 65.863 57.223 42.324 39.080 24.713 22.414 
360 30.893 54.646 13.136 16.092 18.966 9.7701 
361 0.0000 34.360 28.321 4.0230 7.4713 7.4713 
362 15.443 77.087 85.116 25.287 50.575 59.770 
363 63.381 68.947 68.521 43.103 40.230 42.529 
364 69.733 27.566 42.917 33.333 10.345 16.092 
365 32.754 100.00 42.760 47.126 76.437 42.529 
366 47.096 29.481 34.829 16.092 8.0460 10.345 
367 8.5451 71.948 62.695 20.690 38.506 35.632 
368 0.0000 86.048 29.300 28.736 50.575 27.011 
369 53.697 51.572 85.367 28.161 29.885 52.874 
370 17.608 56.690 12.515 13.218 19.540 10.920 
371 90.638 14.414 49.227 58.621 11.494 22.414 
372 63.248 63.640 89.550 40.805 40.805 63.218 
373 100.00 85.976 58.455 105.75 63.793 52.299 
374 9.8311 28.027 7.5567 4.0230 4.5977 2.8736 
375 89.831 64.313 69.506 71.839 39.655 45.977 
376 31.754 12.995 25.543 6.3218 2.8736 5.1724 
377 75.914 45.966 64.957 44.828 22.989 34.483 
378 7.5735 50.695 58.941 9.7701 20.690 25.287 
379 100.00 69.835 58.912 92.529 43.678 43.678 
380 32.211 34.376 48.339 10.345 10.920 16.092 
381 13.901 12.159 73.555 2.8736 9.7701 30.460 
382 87.071 9.0280 77.653 51.724 16.092 43.103 
383 23.272 85.409 84.290 32.184 60.920 64.943 
384 93.289 39.480 26.145 66.092 17.241 17.241 
385 65.769 59.630 30.967 40.230 25.862 18.966 
386 100.00 32.265 41.803 75.862 16.667 22.989 
387 86.568 85.281 86.961 82.184 67.241 75.287 
388 52.577 86.830 30.016 46.552 54.023 29.885 
389 47.921 40.199 76.902 20.115 20.690 39.080 
390 22.360 86.619 61.580 32.759 56.897 43.103 
391 52.232 33.601 88.787 21.264 22.414 52.299 
392 0.0000 28.523 86.267 4.0230 17.241 45.402 
393 43.497 67.879 39.551 27.586 32.184 22.414 
394 39.877 45.261 0.0000 16.092 12.644 6.8966 
395 86.940 12.430 24.699 51.149 8.6207 11.494 
396 28.363 55.339 90.398 16.092 33.333 59.195 
397 39.018 70.534 57.879 27.011 37.356 33.908 
398 12.833 28.519 78.828 4.5977 15.517 37.356 
399 68.350 31.815 69.975 32.759 17.241 34.483 
400 56.520 26.226 41.626 21.839 8.6207 13.793 
401 12.938 46.218 0.0000 8.6207 12.644 6.3218 
402 8.6938 60.179 26.117 13.793 22.414 13.218 
403 51.995 89.429 96.608 49.425 72.414 86.782 
404 46.905 47.746 48.909 21.264 18.391 20.115 
405 14.352 81.814 19.479 27.011 44.828 22.414 
406 71.482 38.117 12.273 37.356 12.644 9.7701 
407 86.616 60.785 10.012 64.368 28.736 18.966 
408 71.811 88.979 52.186 64.943 62.069 43.678 
409 43.213 100.00 72.083 52.299 82.759 62.644 
410 73.920 23.444 8.2853 36.782 7.4713 8.0460 
411 40.629 85.534 53.423 37.356 54.598 37.931 
412 38.955 52.128 22.885 17.816 18.391 11.494 
413 46.480 12.229 8.6707 13.218 2.8736 3.4483 
414 40.855 33.301 22.309 13.218 8.6207 7.4713 
415 76.365 66.787 61.060 54.023 37.931 38.506 
416 7.5076 12.025 20.590 1.7241 2.2989 2.8736 
417 85.930 27.031 0.0000 51.149 9.7701 10.345 
418 100.00 87.757 44.060 106.32 63.218 45.977 
419 41.543 25.624 54.896 13.218 9.1954 18.966 
420 59.533 76.669 91.789 45.402 54.598 72.414 
421 58.226 12.079 28.862 21.264 5.1724 8.0460 
422 50.514 8.8602 88.281 17.241 15.517 48.851 
423 41.983 0.0000 31.301 10.920 2.8736 6.8966 
424 28.024 36.455 77.877 9.7701 18.391 38.506 
425 12.718 41.027 11.129 6.8966 10.345 5.7471 
426 26.194 75.573 88.088 26.437 51.149 62.644 
427 28.936 71.474 37.671 23.563 34.483 22.414 
428 90.497 74.770 26.512 78.161 43.678 29.310 
429 17.514 75.984 41.507 22.989 39.655 26.437 
430 16.621 64.069 68.891 16.667 32.759 37.356 
431 12.420 21.661 36.669 2.8736 5.1724 8.6207 
432 52.915 46.814 10.465 24.138 14.943 9.1954 
433 56.979 91.194 52.490 52.299 63.218 44.253 
434 25.140 52.299 42.419 13.218 18.966 17.241 
435 25.587 6.8296 13.004 4.0230 1.7241 2.2989 
436 55.018 14.818 41.328 19.540 6.3218 12.069 
437 93.397 56.942 87.959 74.713 39.655 64.943 
438 28.374 12.057 85.683 6.8966 13.793 44.828 
439 78.265 6.7088 92.468 41.954 20.115 58.621 
440 39.694 71.314 6.3658 28.161 33.333 16.667 
441 73.259 45.059 87.294 42.529 29.310 55.747 
442 26.381 57.692 76.454 16.667 29.885 41.954 
443 66.587 33.629 31.299 31.609 11.494 12.069 
444 88.523 74.434 46.718 75.862 44.828 36.207 
445 76.836 59.920 49.912 51.149 30.460 28.736 
446 33.152 90.418 31.148 37.931 58.621 31.034 
447 55.924 53.388 68.505 29.310 26.437 36.207 
448 77.248 91.798 41.448 72.989 66.092 41.954 
449 26.737 89.225 45.445 35.057 57.471 36.207 
450 87.642 100.00 25.942 97.126 79.885 44.828 
451 68.631 100.00 40.532 71.839 78.736 45.402 
452 14.485 50.449 49.078 10.345 18.966 19.540 
453 10.654 10.664 89.702 2.8736 14.943 49.425 
454 31.962 49.108 62.920 14.943 20.690 28.736 
455 8.6779 22.468 68.278 2.8736 10.345 26.437 
456 74.727 90.586 6.3447 69.540 60.345 32.184 
457 0.0000 12.136 44.106 1.7241 4.0230 10.345 
458 43.350 78.123 73.610 35.057 48.851 50.000 
459 10.925 11.786 9.5801 1.7241 1.7241 1.7241 
460 15.591 37.386 50.832 6.8966 12.069 16.667 
461 10.685 68.959 9.3113 18.391 29.310 14.943 
462 92.017 72.247 12.692 79.885 40.230 25.287 
463 89.839 77.431 73.400 78.736 54.023 57.471 
464 47.450 74.511 18.753 33.333 37.356 20.690 
465 50.097 90.816 69.461 47.701 66.092 54.598 
466 82.755 34.052 82.994 50.000 23.563 50.575 
467 46.786 72.919 85.794 33.333 46.552 60.920 
468 9.3304 90.457 73.518 33.333 63.793 55.747 
469 88.590 61.902 22.128 68.391 29.885 21.839 
470 100.00 61.262 74.222 87.356 40.230 52.874 
471 86.777 8.8992 8.4672 52.299 6.8966 9.1954 
472 39.582 85.966 11.798 37.356 51.724 24.713 
473 85.958 0.0000 24.986 50.000 6.8966 10.920 
474 80.299 22.552 47.163 44.253 10.920 19.540 
475 7.2180 45.128 76.547 8.6207 21.839 37.931 
476 55.989 48.521 58.428 27.586 21.839 27.011 
477 50.728 10.774 73.284 16.667 11.494 32.759 
478 71.269 10.344 11.008 32.184 5.1724 6.8966 
479 91.768 45.194 10.385 64.943 18.966 15.517 
480 7.8976 42.553 25.130 6.8966 11.494 8.0460 
481 54.269 55.846 25.175 28.161 21.264 14.368 
482 41.937 24.646 5.4249 12.644 5.1724 4.0230 
483 89.502 33.423 70.991 60.345 20.690 39.080 
484 75.301 54.745 14.159 47.126 22.414 15.517 
485 76.653 6.2202 65.750 39.080 11.494 29.310 
486 58.072 77.769 7.4688 43.103 41.954 21.264 
487 27.429 73.801 76.267 25.287 44.828 48.851 
488 39.961 56.279 74.128 21.264 29.310 40.230 
489 23.430 28.561 70.622 6.8966 13.218 29.310 
490 91.285 49.258 68.377 66.667 28.161 40.805 
491 95.591 89.122 11.382 98.276 63.218 36.207 
492 28.451 92.151 76.841 38.506 68.966 60.920 
493 26.242 26.080 53.808 6.8966 8.6207 17.816 
494 15.957 92.746 24.983 35.057 60.920 31.034 
495 13.563 9.1545 61.533 2.2989 6.8966 20.690 
496 13.216 24.593 54.939 3.4483 8.0460 17.241 
497 91.885 89.769 79.537 93.678 71.839 71.839 
498 100.00 88.684 29.334 106.90 62.644 41.379 
499 34.090 65.771 20.136 22.414 27.586 15.517 
500 20.961 77.373 9.9329 25.287 38.506 18.966 
501 48.985 66.059 50.556 30.460 32.184 27.586 
502 92.409 9.0241 90.897 61.494 22.414 59.195 
503 40.340 11.090 52.408 10.920 6.3218 16.092 
504 41.367 58.198 88.277 22.989 35.057 56.897 
505 72.147 77.604 91.982 57.471 58.621 74.713 
506 12.761 67.714 50.147 18.391 32.759 25.862 
507 76.617 25.882 91.445 40.805 22.989 59.195 
508 92.734 34.742 50.285 63.218 17.816 25.862 
509 16.114 24.640 92.845 5.7471 18.966 54.598 
510 22.589 72.255 61.762 22.414 39.080 36.207 
511 79.742 58.911 30.090 54.023 27.011 20.690 
512 75.000 100.00 87.265 79.310 89.080 85.057 
513 22.068 58.052 24.509 14.943 21.264 13.218 
514 29.302 20.341 8.3315 6.8966 3.4483 2.8736 
515 75.009 40.707 41.951 41.954 16.092 18.966 
516 76.599 13.357 74.764 39.655 14.368 37.931 
517 10.272 88.110 94.612 32.759 68.966 79.310 
518 34.093 23.728 89.777 9.7701 17.816 50.575 
519 29.867 13.694 72.950 6.8966 10.345 30.460 
520 64.983 91.010 77.614 59.770 70.115 63.793 
521 66.135 26.770 20.928 29.310 8.0460 8.6207 
522 36.207 25.309 75.344 10.345 13.793 34.483 
523 78.931 73.018 10.687 60.345 39.080 22.989 
524 30.391 22.415 20.277 6.8966 4.5977 4.5977 
525 11.242 82.956 64.472 27.011 51.724 43.678 
526 80.459 87.628 28.607 72.989 58.621 35.057 
527 27.707 31.870 88.315 8.6207 20.115 50.575 
528 62.060 36.458 46.606 28.161 13.793 18.391 
529 29.542 11.104 53.546 5.7471 5.7471 16.092 
530 68.762 19.114 33.778 31.034 7.4713 11.494 
531 59.637 48.524 31.174 29.885 17.816 14.368 
532 48.298 33.520 100.00 19.540 26.437 68.966 
533 45.598 28.163 66.475 15.517 13.218 27.586 
534 29.918 44.928 90.506 13.218 26.437 55.172 
535 78.316 92.636 77.206 77.011 75.287 66.667 
536 91.281 57.367 55.776 70.690 31.034 33.908 
537 21.692 25.080 26.495 5.1724 5.1724 5.7471 
538 74.304 63.813 94.636 51.724 45.977 72.414 
539 88.481 29.745 32.468 56.322 12.644 16.092 
540 59.486 41.236 87.042 28.161 25.287 53.448 
541 92.045 78.449 60.137 83.333 52.299 47.126 
542 61.977 24.673 6.6648 25.287 6.3218 6.3218 
543 40.162 92.786 90.522 44.828 74.138 78.736 
544 36.748 77.066 93.097 31.609 54.023 72.414 
545 20.161 69.446 29.150 20.115 31.034 18.391 
546 47.187 88.771 0.0000 43.678 55.172 27.011 
547 44.188 43.219 90.474 18.966 26.437 56.322 
548 8.9634 92.695 8.7975 34.483 58.621 28.161 
549 32.387 45.286 72.510 13.793 20.690 35.632 
550 48.879 44.876 39.601 21.264 15.517 15.517 
551 61.287 11.463 77.817 24.713 13.793 38.506 
552 25.396 43.768 11.365 10.345 12.069 6.8966 
553 76.983 53.137 73.131 49.425 30.460 43.103 
554 43.083 65.437 28.359 25.862 28.736 17.816 
555 11.708 51.209 32.796 10.345 17.241 12.644 
556 71.238 41.136 23.296 37.931 14.368 12.644 
557 21.758 7.4731 22.877 3.4483 2.2989 3.4483 
558 23.721 37.471 27.997 8.0460 9.7701 8.6207 
559 10.847 0.0000 52.434 1.7241 4.5977 14.368 
560 52.184 32.794 25.185 19.540 9.1954 8.6207 
561 25.164 57.264 2.5113 14.943 20.115 10.345 
562 25.531 62.973 45.088 17.816 27.586 21.839 
563 59.406 92.015 9.9812 54.598 61.494 31.034 
564 9.0031 43.883 94.414 8.6207 27.011 60.920 
565 29.380 24.618 40.510 7.4713 6.8966 10.345 
566 56.497 10.252 5.6832 19.540 3.4483 4.0230 
567 70.521 20.255 56.201 32.759 10.345 22.414 
568 81.365 40.212 31.436 49.425 16.092 16.092 
569 56.550 19.280 86.012 21.839 17.241 47.701 
570 25.096 37.115 57.433 9.1954 13.218 20.690 
571 87.229 43.818 88.570 59.195 31.034 60.345 
572 9.0945 89.498 36.178 32.184 57.471 31.609 
573 60.107 91.337 22.013 54.598 60.920 32.184 
574 43.216 91.406 24.486 42.529 59.770 31.609 
575 55.315 58.321 10.243 29.310 22.989 13.793 
576 63.269 92.590 62.685 59.195 68.966 52.299 
577 20.915 89.348 8.0709 33.333 54.023 25.862 
578 33.841 42.636 23.687 12.644 12.069 9.1954 
579 82.320 36.054 11.955 48.851 12.644 12.069 
580 78.197 45.345 53.373 47.126 20.690 27.011 
581 87.492 64.105 49.348 67.816 34.483 32.184 
582 80.208 74.738 68.707 64.943 47.701 48.276 
583 12.847 33.194 39.194 5.7471 8.6207 10.345 
584 15.215 55.484 78.368 13.218 28.736 43.103 
585 25.437 6.1049 39.533 4.5977 3.4483 8.6207 
586 57.870 49.584 46.944 29.310 20.115 21.264 
587 67.620 65.849 53.975 44.828 35.057 31.609 
588 26.643 41.991 38.871 10.345 13.218 12.644 
589 42.800 8.7865 22.456 11.494 2.8736 4.5977 
590 57.049 35.385 77.322 24.713 19.540 40.230 
591 36.112 43.832 54.787 14.368 16.667 21.839 
592 62.719 62.395 77.348 38.506 36.207 49.425 
593 60.706 81.416 54.884 47.701 51.149 39.655 
594 90.695 4.9508 56.719 56.322 12.069 26.437 
595 43.936 24.373 43.898 13.793 8.0460 13.218 
596 4.3825 24.210 30.612 2.8736 5.1724 6.3218 
597 53.911 79.942 42.742 41.379 45.977 31.609 
598 90.172 22.149 68.288 57.471 16.667 35.632 
599 77.586 29.345 63.000 42.529 15.517 29.885 
600 60.572 25.668 63.187 25.862 12.069 27.011 
601 97.729 10.927 74.359 70.115 17.241 41.954 
602 57.769 8.0576 53.146 21.264 7.4713 18.391 
603 77.517 92.691 61.488 75.287 71.264 53.448 
604 44.198 38.831 60.002 17.241 15.517 24.713 
605 65.034 81.736 33.440 52.299 49.425 29.885 
606 67.829 69.791 24.123 45.977 34.483 21.839 
607 25.001 99.668 13.437 43.678 72.989 34.483 
608 89.683 25.837 56.548 56.897 15.517 27.011 
609 41.656 51.246 11.867 18.966 17.241 9.7701 
610 23.720 38.131 96.840 9.1954 25.287 63.793 
611 78.049 6.5915 25.803 39.080 6.3218 10.345 
612 46.116 56.291 55.290 23.563 24.713 26.437 
613 92.023 9.1483 37.844 59.195 9.7701 16.667 
614 91.068 89.904 23.497 91.954 62.069 37.931 
615 76.477 27.045 32.402 40.230 10.345 13.218 
616 42.661 5.2197 80.136 12.069 12.069 38.506 
617 6.2584 65.435 77.208 17.241 35.632 45.402 
618 89.710 95.846 52.578 96.552 76.437 52.299 
619 88.397 77.149 94.397 78.736 60.920 81.034 
620 78.888 91.034 93.609 76.437 78.736 86.207 
621 47.820 92.501 59.000 47.701 66.667 46.552 
622 23.826 47.444 80.539 12.069 24.713 43.678 
623 9.0413 12.290 37.978 1.7241 3.4483 8.0460 
624 23.331 16.308 46.267 4.5977 5.7471 12.069 
625 35.756 10.704 35.900 8.0460 4.0230 8.0460 
626 2.9969 77.210 88.879 23.563 51.724 65.517 
627 28.436 75.743 23.117 25.287 37.931 20.690 
628 9.0221 78.989 30.580 24.138 41.954 24.138 
629 8.8030 17.371 0.30943 2.2989 2.2989 1.7241 
630 60.160 36.719 3.7856 26.437 10.345 7.4713 
631 7.0698 90.899 57.373 33.333 60.920 43.103 
632 79.721 9.5270 45.163 42.529 8.6207 17.816 
633 10.879 74.236 95.746 22.989 51.149 73.563 
634 64.217 22.086 74.373 28.161 14.368 36.207 
635 70.017 40.853 76.607 37.931 22.989 42.529 
636 4.7334 24.411 48.203 2.8736 6.8966 13.218 
637 50.973 26.358 13.005 17.816 6.3218 5.7471 
638 2.5724 55.065 90.994 12.069 32.759 57.471 
639 90.879 45.601 57.982 64.368 24.138 32.184 
640 68.145 79.947 44.862 53.448 48.276 33.908 
641 1.4829 67.595 54.158 17.241 32.759 28.161 
642 98.031 12.492 26.865 67.241 9.7701 15.517 
643 76.470 93.209 18.886 72.414 65.517 36.207 
644 87.292 66.922 80.462 69.540 44.253 58.621 
645 10.233 96.829 47.233 38.506 68.391 41.379 
646 68.028 67.167 39.031 45.402 33.333 24.713 
647 45.312 94.998 9.2426 48.276 64.943 31.034 
648 77.970 53.709 40.015 50.000 23.563 21.839 
649 39.314 57.645 38.800 20.690 22.989 17.816 
650 57.297 82.865 67.439 46.552 55.747 48.276 
651 37.555 22.599 31.928 10.345 5.7471 7.4713 
652 92.350 23.597 40.911 60.345 12.644 18.966 
653 9.3660 69.976 21.141 18.391 31.609 16.667 
654 51.187 19.140 23.012 16.667 5.1724 6.3218 
655 79.397 80.212 79.858 66.667 58.046 63.218 
656 95.392 55.226 12.927 74.138 25.862 20.115 
657 41.375 92.945 46.055 43.678 63.793 39.655 
658 45.146 82.618 89.901 38.506 59.770 72.414 
659 77.443 63.822 71.275 54.598 37.356 45.977 
660 53.973 31.254 55.289 21.264 12.069 21.264 
661 67.321 92.812 91.875 64.943 78.161 83.908 
662 39.436 37.141 40.709 13.793 11.494 13.218 
663 97.731 46.918 91.781 77.586 35.632 67.816 
664 40.993 6.1961 67.428 10.920 9.1954 25.862 
665 79.123 80.606 57.718 66.667 53.448 43.103 
666 28.913 52.537 29.968 14.368 18.391 12.644 
667 14.658 37.254 73.035 6.8966 16.667 33.333 
668 82.795 16.173 87.132 46.552 20.115 54.023 
669 8.3262 91.659 83.695 34.483 70.115 68.391 
670 45.527 77.031 49.285 34.483 43.103 32.184 
671 9.0854 40.031 62.080 6.8966 14.943 25.287 
672 95.919 70.219 40.212 83.908 40.230 32.759 
673 42.670 92.336 77.786 44.828 70.115 63.218 
674 94.260 40.143 78.486 68.966 26.437 49.425 
675 65.647 53.082 89.436 37.931 33.333 59.770 
676 81.521 18.364 16.183 44.828 8.0460 9.7701 
677 8.4681 2.0260 9.4857 1.1494 0.57471 1.7241 
678 30.651 60.550 56.553 18.966 28.161 27.011 
679 53.483 73.043 73.646 37.356 44.828 47.701 
680 90.408 54.335 1.4985 66.667 24.713 17.241 
681 26.668 7.7075 63.496 5.1724 7.4713 22.414 
682 58.933 25.917 94.913 24.713 22.414 60.920 
683 9.8548 0.76371 72.617 2.2989 8.6207 29.310 
684 47.990 75.517 31.176 34.483 40.230 23.563 
685 48.087 9.0808 60.091 14.368 8.0460 21.264 
686 10.988 21.876 19.614 2.8736 4.0230 4.0230 
687 22.598 55.646 65.078 13.793 25.862 31.609 
688 9.0697 82.142 78.531 27.011 54.598 56.322 
689 90.301 42.459 39.120 61.494 18.966 21.839 
690 47.378 36.472 11.171 17.816 9.7701 6.3218 
691 49.382 1.8032 9.6600 14.368 2.2989 3.4483 
692 1.9703 20.522 9.5307 1.7241 3.4483 2.2989 
693 81.649 69.738 31.735 62.644 36.782 26.437 
694 34.530 73.626 67.130 27.586 41.954 40.805 
695 81.659 80.940 43.479 70.690 51.724 36.207 
696 10.291 63.628 90.197 16.667 39.080 59.770 
697 9.3825 51.554 18.669 10.345 16.092 9.1954 
698 17.762 96.201 72.191 39.655 75.287 58.621 
699 67.560 52.693 6.6256 37.931 20.115 12.644 
700 45.853 7.7641 41.225 13.218 4.5977 10.920 
701 10.950 73.197 73.054 21.264 43.103 45.402 
702 30.698 39.723 1.5250 10.345 10.345 5.1724 
703 81.002 52.333 91.825 53.448 35.632 66.667 
704 51.213 8.0050 98.430 17.816 20.115 64.368 
705 5.4368 7.4372 80.307 2.2989 11.494 37.356 
706 23.483 5.5586 76.358 4.5977 10.345 33.333 
707 32.278 78.328 11.186 28.736 40.805 20.115 
708 4.5816 10.694 55.933 1.7241 6.3218 16.092 
709 89.829 62.524 36.614 70.115 32.184 25.862 
710 80.544 47.439 8.1742 50.575 18.391 13.793 
711 52.750 18.751 64.422 18.966 10.920 25.287 
712 62.358 2.6644 71.659 24.713 11.494 32.184 
713 64.674 45.928 67.561 33.333 22.989 33.908 
714 9.4766 33.184 90.141 5.7471 20.690 51.724 
715 70.466 56.323 80.091 43.103 33.333 51.149 
716 57.237 71.111 99.776 39.655 52.299 82.759 
717 87.665 54.898 77.235 63.218 33.908 50.575 
718 16.330 71.595 0.85939 20.690 32.184 15.517 
719 35.300 79.117 32.908 31.034 42.529 25.287 
720 28.667 65.599 9.3944 20.115 26.437 13.793 
721 6.4435 54.089 70.225 11.494 24.713 35.057 
722 61.839 6.8281 38.810 24.138 5.7471 11.494 
723 26.820 89.870 94.786 37.356 71.839 81.609 
724 5.7523 92.776 20.962 34.483 60.345 29.310 
725 75.073 63.309 7.8752 51.149 29.310 17.816 
726 61.102 20.846 50.693 24.713 9.1954 17.816 
727 22.212 92.446 35.502 36.782 60.920 33.333 
728 92.086 35.290 8.3735 63.218 14.368 13.218 
729 6.1371 56.812 8.6847 11.494 20.115 9.1954 
730 17.496 95.134 90.968 39.080 79.310 78.736 
731 97.652 22.856 91.040 70.690 25.862 62.069 
732 49.838 56.677 94.927 27.586 37.356 67.241 
733 52.347 66.189 89.979 32.759 43.103 64.368 
734 9.2025 61.070 60.052 14.368 28.736 29.310 
735 91.322 33.889 95.067 61.494 29.885 68.966 
736 35.535 50.421 47.701 16.092 19.540 20.115 
737 90.687 67.765 92.424 74.713 50.000 75.287 
738 23.140 27.979 7.2528 5.7471 5.1724 3.4483 
739 74.571 37.346 94.340 40.805 28.161 64.943 
740 94.499 74.711 82.469 85.632 54.023 66.667 
741 43.662 60.242 6.7089 24.138 22.989 12.644 
742 94.229 53.959 43.646 73.563 27.011 27.586 
743 88.819 11.383 66.503 55.172 13.793 33.333 
744 32.047 21.909 62.334 8.6207 9.1954 22.414 
745 54.950 92.541 82.626 53.448 72.989 68.966 
746 71.956 56.212 58.905 44.253 28.161 31.609 
747 99.325 70.902 23.244 91.954 40.805 28.736 
748 90.147 23.875 23.537 57.471 10.920 13.218 
749 4.9251 37.670 45.258 5.1724 10.920 13.793 
750 92.003 4.3641 46.508 58.046 10.920 20.690 
751 8.0287 68.481 36.597 17.816 31.609 20.115 
752 94.712 55.380 27.877 73.563 26.437 22.989 
753 59.036 41.793 22.693 26.437 13.793 10.920 
754 75.085 4.1457 81.543 37.356 15.517 44.828 
755 63.301 73.580 81.794 45.402 48.276 59.195 
756 87.889 97.159 72.707 93.103 81.609 69.540 
757 39.453 9.5152 91.318 10.920 16.092 52.874 
758 26.353 18.572 94.841 6.8966 18.391 57.471 
759 19.325 8.4249 4.4960 2.8736 1.1494 1.7241 
760 14.945 80.063 53.214 26.437 45.977 33.908 
761 56.393 7.7606 18.733 19.540 4.0230 5.1724 
762 53.296 91.987 40.941 50.575 63.218 37.356 
763 91.714 5.4089 17.461 58.046 8.0460 10.920 
764 35.214 69.883 47.511 25.287 34.483 25.862 
765 54.174 65.046 39.976 32.759 30.460 22.989 
766 0.48739 73.380 13.583 20.115 34.483 16.667 
767 45.038 24.464 90.440 15.517 18.966 52.299 
768 63.657 41.354 57.623 30.460 18.391 25.862 
769 60.349 99.318 73.525 62.644 83.908 66.667 
770 45.802 53.303 31.659 22.414 19.540 14.943 
771 66.010 80.362 74.383 51.149 54.023 55.172 
772 23.949 64.714 91.592 19.540 40.805 63.793 
773 74.347 9.4171 54.078 35.632 9.7701 21.264 
774 92.529 91.743 63.785 95.402 70.690 58.621 
775 27.251 94.198 55.878 39.655 67.241 45.402 
776 35.570 11.733 10.395 8.0460 2.2989 2.8736 
777 2.5649 51.038 46.451 9.7701 18.391 18.391 
778 91.133 22.688 78.884 59.770 19.540 45.977 
779 9.3684 3.2632 25.712 1.1494 1.7241 4.0230 
780 89.782 58.781 98.566 69.540 45.402 79.885 
781 91.178 92.619 40.078 94.828 69.540 44.828 
782 67.918 75.593 60.707 50.575 45.977 40.805 
783 21.214 7.6666 93.134 4.5977 16.667 53.448 
784 16.312 15.496 27.702 2.8736 3.4483 5.1724 
785 55.058 61.647 63.033 31.609 31.609 34.483 
786 64.827 43.743 39.237 31.609 16.667 16.667 
787 76.437 76.558 23.556 59.195 43.103 26.437 
788 23.505 31.715 37.321 6.8966 8.6207 10.345 
789 73.049 16.469 95.896 36.207 21.839 64.368 
790 86.350 91.415 7.6506 85.057 63.793 36.207 
791 75.383 18.628 65.782 37.931 13.218 30.460 
792 69.893 90.723 32.423 63.793 61.494 36.207 
793 48.410 50.555 75.728 22.989 25.287 41.379 
794 66.070 6.5086 22.487 27.011 4.5977 7.4713 
795 56.705 65.792 24.032 35.057 29.885 17.816 
796 76.562 34.662 51.314 41.954 15.517 22.414 
797 79.282 37.864 70.629 46.552 21.264 36.782 
798 61.860 83.501 85.092 51.149 61.494 67.241 
799 55.206 71.204 58.769 37.356 39.655 35.632 
800 41.161 67.679 77.016 27.011 40.230 48.276 
801 39.082 35.254 73.407 13.793 17.241 34.483 
802 54.232 98.131 91.703 57.471 87.356 86.207 
803 52.316 68.565 11.225 32.759 31.609 17.241 
804 13.126 31.651 17.948 4.5977 6.8966 5.1724 
805 41.211 67.640 94.245 27.586 45.402 69.540 
806 6.2691 78.009 44.653 23.563 42.529 27.586 
807 18.472 48.506 58.249 10.345 19.540 24.138 
808 91.193 95.684 89.468 97.126 86.207 88.506 
809 90.576 89.753 96.277 90.230 79.310 93.678 
810 91.055 18.181 4.8873 57.471 9.1954 10.920 
811 9.5158 57.466 44.934 12.644 22.989 19.540 
812 74.253 8.6243 35.462 35.632 6.8966 12.644 
813 30.958 79.592 58.964 29.310 47.126 37.931 
814 64.297 44.200 12.447 31.609 14.368 10.920 
815 90.387 78.022 2.1230 80.460 45.977 27.586 
816 38.276 57.670 62.470 20.690 26.437 31.034 
817 69.306 81.298 10.013 56.322 47.126 25.287 
818 11.786 56.194 98.458 13.793 36.207 70.690 
819 37.361 92.605 63.696 42.529 67.241 49.425 
820 99.099 26.774 11.310 72.414 12.644 13.793 
821 33.690 80.487 44.100 31.609 46.552 29.885 
822 58.378 47.696 96.771 30.460 32.759 67.816 
823 8.3100 80.971 8.1118 25.862 43.678 20.690 
824 36.053 31.424 11.914 10.920 7.4713 4.5977 
825 23.960 74.365 97.709 25.287 54.023 77.586 
826 2.2643 18.895 91.763 2.8736 17.241 52.299 
827 33.230 92.745 7.8538 39.080 60.920 28.736 
828 74.486 38.764 0.43818 39.655 12.644 10.345 
829 72.293 67.732 84.511 50.575 44.253 61.494 
830 71.349 55.278 23.750 42.529 22.414 16.667 
831 10.998 19.916 82.596 3.4483 13.793 40.805 
832 1.5798 33.328 79.698 5.1724 16.667 40.230 
833 61.955 8.9911 90.766 25.287 17.816 54.598 
834 44.195 40.277 31.491 17.241 12.069 11.494 
835 59.060 79.425 21.320 44.828 44.253 24.138 
836 9.8214 2.9467 42.842 1.7241 3.4483 9.1954 
END_DATA
CAL    

DESCRIPTOR "Argyll Device Calibration State"
ORIGINATOR "Argyll dispread"
CREATED "Tue Jan  3 15:09:04 2012"
KEYWORD "DEVICE_CLASS"
DEVICE_CLASS "DISPLAY"
KEYWORD "COLOR_REP"
COLOR_REP "RGB"

KEYWORD "RGB_I"
NUMBER_OF_FIELDS 4
BEGIN_DATA_FORMAT
RGB_I RGB_R RGB_G RGB_B 
END_DATA_FORMAT

NUMBER_OF_SETS 256
BEGIN_DATA
0.0000 0.0000 0.0000 0.0000 
3.9216e-03 3.9216e-03 3.9216e-03 3.9216e-03 
7.8431e-03 7.8431e-03 7.8431e-03 7.8431e-03 
0.011765 0.011765 0.011765 0.011765 
0.015686 0.015686 0.015686 0.015686 
0.019608 0.019608 0.019608 0.019608 
0.023529 0.023529 0.023529 0.023529 
0.027451 0.027451 0.027451 0.027451 
0.031373 0.031373 0.031373 0.031373 
0.035294 0.035294 0.035294 0.035294 
0.039216 0.039216 0.039216 0.039216 
0.043137 0.043137 0.043137 0.043137 
0.047059 0.047059 0.047059 0.047059 
0.050980 0.050980 0.050980 0.050980 
0.054902 0.054902 0.054902 0.054902 
0.058824 0.058824 0.058824 0.058824 
0.062745 0.062745 0.062745 0.062745 
0.066667 0.066667 0.066667 0.066667 
0.070588 0.070588 0.070588 0.070588 
0.074510 0.074510 0.074510 0.074510 
0.078431 0.078431 0.078431 0.078431 
0.082353 0.082353 0.082353 0.082353 
0.086275 0.086275 0.086275 0.086275 
0.090196 0.090196 0.090196 0.090196 
0.094118 0.094118 0.094118 0.094118 
0.098039 0.098039 0.098039 0.098039 
0.10196 0.10196 0.10196 0.10196 
0.10588 0.10588 0.10588 0.10588 
0.10980 0.10980 0.10980 0.10980 
0.11373 0.11373 0.11373 0.11373 
0.11765 0.11765 0.11765 0.11765 
0.12157 0.12157 0.12157 0.12157 
0.12549 0.12549 0.12549 0.12549 
0.12941 0.12941 0.12941 0.12941 
0.13333 0.13333 0.13333 0.13333 
0.13725 0.13725 0.13725 0.13725 
0.14118 0.14118 0.14118 0.14118 
0.14510 0.14510 0.14510 0.14510 
0.14902 0.14902 0.14902 0.14902 
0.15294 0.15294 0.15294 0.15294 
0.15686 0.15686 0.15686 0.15686 
0.16078 0.16078 0.16078 0.16078 
0.16471 0.16471 0.16471 0.16471 
0.16863 0.16863 0.16863 0.16863 
0.17255 0.17255 0.17255 0.17255 
0.17647 0.17647 0.17647 0.17647 
0.18039 0.18039 0.18039 0.18039 
0.18431 0.18431 0.18431 0.18431 
0.18824 0.18824 0.18824 0.18824 
0.19216 0.19216 0.19216 0.19216 
0.19608 0.19608 0.19608 0.19608 
0.20000 0.20000 0.20000 0.20000 
0.20392 0.20392 0.20392 0.20392 
0.20784 0.20784 0.20784 0.20784 
0.21176 0.21176 0.21176 0.21176 
0.21569 0.21569 0.21569 0.21569 
0.21961 0.21961 0.21961 0.21961 
0.22353 0.22353 0.22353 0.22353 
0.22745 0.22745 0.22745 0.22745 
0.23137 0.23137 0.23137 0.23137 
0.23529 0.23529 0.23529 0.23529 
0.23922 0.23922 0.23922 0.23922 
0.24314 0.24314 0.24314 0.24314 
0.24706 0.24706 0.24706 0.24706 
0.25098 0.25098 0.25098 0.25098 
0.25490 0.25490 0.25490 0.25490 
0.25882 0.25882 0.25882 0.25882 
0.26275 0.26275 0.26275 0.26275 
0.26667 0.26667 0.26667 0.26667 
0.27059 0.27059 0.27059 0.27059 
0.27451 0.27451 0.27451 0.27451 
0.27843 0.27843 0.27843 0.27843 
0.28235 0.28235 0.28235 0.28235 
0.28627 0.28627 0.28627 0.28627 
0.29020 0.29020 0.29020 0.29020 
0.29412 0.29412 0.29412 0.29412 
0.29804 0.29804 0.29804 0.29804 
0.30196 0.30196 0.30196 0.30196 
0.30588 0.30588 0.30588 0.30588 
0.30980 0.30980 0.30980 0.30980 
0.31373 0.31373 0.31373 0.31373 
0.31765 0.31765 0.31765 0.31765 
0.32157 0.32157 0.32157 0.32157 
0.32549 0.32549 0.32549 0.32549 
0.32941 0.32941 0.32941 0.32941 
0.33333 0.33333 0.33333 0.33333 
0.33725 0.33725 0.33725 0.33725 
0.34118 0.34118 0.34118 0.34118 
0.34510 0.34510 0.34510 0.34510 
0.34902 0.34902 0.34902 0.34902 
0.35294 0.35294 0.35294 0.35294 
0.35686 0.35686 0.35686 0.35686 
0.36078 0.36078 0.36078 0.36078 
0.36471 0.36471 0.36471 0.36471 
0.36863 0.36863 0.36863 0.36863 
0.37255 0.37255 0.37255 0.37255 
0.37647 0.37647 0.37647 0.37647 
0.38039 0.38039 0.38039 0.38039 
0.38431 0.38431 0.38431 0.38431 
0.38824 0.38824 0.38824 0.38824 
0.39216 0.39216 0.39216 0.39216 
0.39608 0.39608 0.39608 0.39608 
0.40000 0.40000 0.40000 0.40000 
0.40392 0.40392 0.40392 0.40392 
0.40784 0.40784 0.40784 0.40784 
0.41176 0.41176 0.41176 0.41176 
0.41569 0.41569 0.41569 0.41569 
0.41961 0.41961 0.41961 0.41961 
0.42353 0.42353 0.42353 0.42353 
0.42745 0.42745 0.42745 0.42745 
0.43137 0.43137 0.43137 0.43137 
0.43529 0.43529 0.43529 0.43529 
0.43922 0.43922 0.43922 0.43922 
0.44314 0.44314 0.44314 0.44314 
0.44706 0.44706 0.44706 0.44706 
0.45098 0.45098 0.45098 0.45098 
0.45490 0.45490 0.45490 0.45490 
0.45882 0.45882 0.45882 0.45882 
0.46275 0.46275 0.46275 0.46275 
0.46667 0.46667 0.46667 0.46667 
0.47059 0.47059 0.47059 0.47059 
0.47451 0.47451 0.47451 0.47451 
0.47843 0.47843 0.47843 0.47843 
0.48235 0.48235 0.48235 0.48235 
0.48627 0.48627 0.48627 0.48627 
0.49020 0.49020 0.49020 0.49020 
0.49412 0.49412 0.49412 0.49412 
0.49804 0.49804 0.49804 0.49804 
0.50196 0.50196 0.50196 0.50196 
0.50588 0.50588 0.50588 0.50588 
0.50980 0.50980 0.50980 0.50980 
0.51373 0.51373 0.51373 0.51373 
0.51765 0.51765 0.51765 0.51765 
0.52157 0.52157 0.52157 0.52157 
0.52549 0.52549 0.52549 0.52549 
0.52941 0.52941 0.52941 0.52941 
0.53333 0.53333 0.53333 0.53333 
0.53725 0.53725 0.53725 0.53725 
0.54118 0.54118 0.54118 0.54118 
0.54510 0.54510 0.54510 0.54510 
0.54902 0.54902 0.54902 0.54902 
0.55294 0.55294 0.55294 0.55294 
0.55686 0.55686 0.55686 0.55686 
0.56078 0.56078 0.56078 0.56078 
0.56471 0.56471 0.56471 0.56471 
0.56863 0.56863 0.56863 0.56863 
0.57255 0.57255 0.57255 0.57255 
0.57647 0.57647 0.57647 0.57647 
0.58039 0.58039 0.58039 0.58039 
0.58431 0.58431 0.58431 0.58431 
0.58824 0.58824 0.58824 0.58824 
0.59216 0.59216 0.59216 0.59216 
0.59608 0.59608 0.59608 0.59608 
0.60000 0.60000 0.60000 0.60000 
0.60392 0.60392 0.60392 0.60392 
0.60784 0.60784 0.60784 0.60784 
0.61176 0.61176 0.61176 0.61176 
0.61569 0.61569 0.61569 0.61569 
0.61961 0.61961 0.61961 0.61961 
0.62353 0.62353 0.62353 0.62353 
0.62745 0.62745 0.62745 0.62745 
0.63137 0.63137 0.63137 0.63137 
0.63529 0.63529 0.63529 0.63529 
0.63922 0.63922 0.63922 0.63922 
0.64314 0.64314 0.64314 0.64314 
0.64706 0.64706 0.64706 0.64706 
0.65098 0.65098 0.65098 0.65098 
0.65490 0.65490 0.65490 0.65490 
0.65882 0.65882 0.65882 0.65882 
0.66275 0.66275 0.66275 0.66275 
0.66667 0.66667 0.66667 0.66667 
0.67059 0.67059 0.67059 0.67059 
0.67451 0.67451 0.67451 0.67451 
0.67843 0.67843 0.67843 0.67843 
0.68235 0.68235 0.68235 0.68235 
0.68627 0.68627 0.68627 0.68627 
0.69020 0.69020 0.69020 0.69020 
0.69412 0.69412 0.69412 0.69412 
0.69804 0.69804 0.69804 0.69804 
0.70196 0.70196 0.70196 0.70196 
0.70588 0.70588 0.70588 0.70588 
0.70980 0.70980 0.70980 0.70980 
0.71373 0.71373 0.71373 0.71373 
0.71765 0.71765 0.71765 0.71765 
0.72157 0.72157 0.72157 0.72157 
0.72549 0.72549 0.72549 0.72549 
0.72941 0.72941 0.72941 0.72941 
0.73333 0.73333 0.73333 0.73333 
0.73725 0.73725 0.73725 0.73725 
0.74118 0.74118 0.74118 0.74118 
0.74510 0.74510 0.74510 0.74510 
0.74902 0.74902 0.74902 0.74902 
0.75294 0.75294 0.75294 0.75294 
0.75686 0.75686 0.75686 0.75686 
0.76078 0.76078 0.76078 0.76078 
0.76471 0.76471 0.76471 0.76471 
0.76863 0.76863 0.76863 0.76863 
0.77255 0.77255 0.77255 0.77255 
0.77647 0.77647 0.77647 0.77647 
0.78039 0.78039 0.78039 0.78039 
0.78431 0.78431 0.78431 0.78431 
0.78824 0.78824 0.78824 0.78824 
0.79216 0.79216 0.79216 0.79216 
0.79608 0.79608 0.79608 0.79608 
0.80000 0.80000 0.80000 0.80000 
0.80392 0.80392 0.80392 0.80392 
0.80784 0.80784 0.80784 0.80784 
0.81176 0.81176 0.81176 0.81176 
0.81569 0.81569 0.81569 0.81569 
0.81961 0.81961 0.81961 0.81961 
0.82353 0.82353 0.82353 0.82353 
0.82745 0.82745 0.82745 0.82745 
0.83137 0.83137 0.83137 0.83137 
0.83529 0.83529 0.83529 0.83529 
0.83922 0.83922 0.83922 0.83922 
0.84314 0.84314 0.84314 0.84314 
0.84706 0.84706 0.84706 0.84706 
0.85098 0.85098 0.85098 0.85098 
0.85490 0.85490 0.85490 0.85490 
0.85882 0.85882 0.85882 0.85882 
0.86275 0.86275 0.86275 0.86275 
0.86667 0.86667 0.86667 0.86667 
0.87059 0.87059 0.87059 0.87059 
0.87451 0.87451 0.87451 0.87451 
0.87843 0.87843 0.87843 0.87843 
0.88235 0.88235 0.88235 0.88235 
0.88627 0.88627 0.88627 0.88627 
0.89020 0.89020 0.89020 0.89020 
0.89412 0.89412 0.89412 0.89412 
0.89804 0.89804 0.89804 0.89804 
0.90196 0.90196 0.90196 0.90196 
0.90588 0.90588 0.90588 0.90588 
0.90980 0.90980 0.90980 0.90980 
0.91373 0.91373 0.91373 0.91373 
0.91765 0.91765 0.91765 0.91765 
0.92157 0.92157 0.92157 0.92157 
0.92549 0.92549 0.92549 0.92549 
0.92941 0.92941 0.92941 0.92941 
0.93333 0.93333 0.93333 0.93333 
0.93725 0.93725 0.93725 0.93725 
0.94118 0.94118 0.94118 0.94118 
0.94510 0.94510 0.94510 0.94510 
0.94902 0.94902 0.94902 0.94902 
0.95294 0.95294 0.95294 0.95294 
0.95686 0.95686 0.95686 0.95686 
0.96078 0.96078 0.96078 0.96078 
0.96471 0.96471 0.96471 0.96471 
0.96863 0.96863 0.96863 0.96863 
0.97255 0.97255 0.97255 0.97255 
0.97647 0.97647 0.97647 0.97647 
0.98039 0.98039 0.98039 0.98039 
0.98431 0.98431 0.98431 0.98431 
0.98824 0.98824 0.98824 0.98824 
0.99216 0.99216 0.99216 0.99216 
0.99608 0.99608 0.99608 0.99608 
1.0000 1.0000 1.0000 1.0000 
END_DATA
