CTI3   

DESCRIPTOR "Argyll Calibration Target chart information 3"
ORIGINATOR "Argyll dispread"
CREATED "Mon Dec  5 18:54:18 2011"
KEYWORD "DEVICE_CLASS"
DEVICE_CLASS "DISPLAY"
KEYWORD "COLOR_REP"
COLOR_REP "RGB_XYZ"
KEYWORD "TARGET_INSTRUMENT"
TARGET_INSTRUMENT "Hughski ColorHug"
KEYWORD "INSTRUMENT_TYPE_SPECTRAL"
INSTRUMENT_TYPE_SPECTRAL "NO"
KEYWORD "LUMINANCE_XYZ_CDM2"
LUMINANCE_XYZ_CDM2 "58.593750 37.307739 38.223267"
KEYWORD "NORMALIZED_TO_Y_100"
NORMALIZED_TO_Y_100 "YES"

NUMBER_OF_FIELDS 7
BEGIN_DATA_FORMAT
SAMPLE_ID RGB_R RGB_G RGB_B XYZ_X XYZ_Y XYZ_Z 
END_DATA_FORMAT

NUMBER_OF_SETS 836
BEGIN_DATA
1 100.00 100.00 100.00 157.06 100.00 102.45 
2 100.00 100.00 100.00 168.71 104.91 107.98 
3 100.00 100.00 100.00 166.87 103.68 106.75 
4 100.00 100.00 100.00 164.42 102.45 107.36 
5 33.330 32.622 30.968 14.110 8.5890 7.9755 
6 100.00 0.0000 100.00 103.07 27.607 76.074 
7 100.00 100.00 0.0000 161.35 84.049 44.785 
8 0.0000 100.00 100.00 55.215 92.025 93.252 
9 0.0000 100.00 0.0000 52.147 71.779 28.834 
10 0.0000 0.0000 100.00 3.0675 18.405 63.190 
11 100.00 0.0000 0.0000 103.07 9.2025 13.497 
12 0.0000 0.0000 0.0000 0.61350 0.61350 0.0000 
13 0.0000 52.455 100.00 14.724 34.969 69.939 
14 100.00 0.0000 50.300 103.07 13.497 25.767 
15 100.00 54.739 100.00 120.25 46.626 82.209 
16 100.00 52.128 0.0000 116.56 25.767 19.632 
17 0.0000 0.0000 46.181 1.2270 3.0675 9.8160 
18 0.0000 51.141 0.0000 11.656 15.951 6.7485 
19 0.0000 100.00 51.348 53.374 78.528 42.945 
20 100.00 100.00 52.037 164.42 88.957 57.669 
21 49.216 0.0000 0.0000 19.632 1.8405 2.4540 
22 56.159 100.00 0.0000 79.755 76.687 33.742 
23 49.226 100.00 100.00 76.074 93.865 95.706 
24 44.487 0.0000 100.00 18.405 20.245 65.644 
25 100.00 44.498 52.029 114.11 24.540 31.902 
26 48.926 48.544 100.00 33.742 33.742 71.779 
27 51.368 100.00 47.250 77.301 78.528 43.558 
28 49.893 0.0000 49.033 22.086 6.1350 14.724 
29 53.109 51.372 0.0000 36.196 18.405 9.8160 
30 0.0000 58.587 53.943 16.564 25.767 22.699 
31 100.00 28.065 100.00 110.43 32.515 76.687 
32 0.0000 0.0000 72.874 1.2270 8.5890 28.221 
33 0.0000 26.758 100.00 5.5215 22.699 63.190 
34 0.0000 25.426 0.0000 3.6810 4.2945 1.8405 
35 72.508 0.0000 100.00 50.307 23.313 68.098 
36 100.00 27.395 0.0000 106.13 14.110 15.337 
37 74.470 100.00 100.00 108.59 97.546 99.387 
38 100.00 0.0000 25.728 102.45 11.043 16.564 
39 73.862 0.0000 0.0000 50.307 4.9080 6.7485 
40 100.00 100.00 25.402 165.03 84.049 47.239 
41 0.0000 75.751 100.00 30.675 55.215 77.914 
42 0.0000 75.172 0.0000 28.221 36.196 15.337 
43 0.0000 100.00 25.864 53.988 73.006 32.515 
44 100.00 0.0000 74.801 104.91 18.405 43.558 
45 0.0000 100.00 75.421 55.828 82.209 60.736 
46 24.577 0.0000 0.0000 5.5215 0.61350 0.61350 
47 26.321 100.00 0.0000 60.123 74.233 30.061 
48 100.00 75.835 0.0000 137.42 47.853 28.834 
49 100.00 100.00 77.061 166.26 93.865 76.074 
50 71.263 100.00 0.0000 102.45 78.528 36.196 
51 0.0000 0.0000 15.614 0.61350 0.61350 1.2270 
52 0.0000 30.049 70.936 4.9080 13.497 28.834 
53 100.00 77.691 100.00 137.42 68.098 92.638 
54 24.486 100.00 100.00 60.123 92.025 93.252 
55 100.00 62.784 31.909 123.93 34.969 28.221 
56 29.552 0.0000 100.00 9.2025 18.405 63.804 
57 32.980 70.921 100.00 35.583 50.307 77.301 
58 0.0000 27.681 40.241 4.2945 6.7485 9.8160 
59 67.901 71.021 100.00 68.712 53.988 80.368 
60 28.154 100.00 67.829 61.350 80.368 53.988 
61 71.637 100.00 70.001 104.91 85.276 61.963 
62 58.822 58.763 53.586 47.239 28.221 26.994 
63 33.466 30.480 0.0000 13.497 6.7485 3.6810 
64 100.00 73.795 71.277 134.97 53.374 55.215 
65 68.394 29.692 0.0000 46.012 9.2025 7.9755 
66 70.399 0.0000 29.039 45.399 6.1350 9.8160 
67 28.078 0.0000 26.956 6.7485 1.8405 4.9080 
68 28.532 72.339 0.0000 31.902 34.356 14.724 
69 100.00 30.941 26.496 106.75 15.951 19.018 
70 34.597 0.0000 73.611 11.043 9.8160 30.675 
71 71.573 0.0000 72.408 47.239 12.883 34.356 
72 0.0000 71.029 29.412 25.153 33.129 17.178 
73 68.386 75.008 0.0000 71.166 40.491 20.859 
74 68.088 27.309 100.00 47.853 26.380 69.325 
75 100.00 26.457 73.749 108.59 22.086 44.172 
76 74.344 100.00 27.392 108.59 79.755 39.877 
77 27.558 100.00 28.197 60.123 74.847 34.356 
78 31.196 27.465 100.00 13.497 23.926 63.804 
79 0.0000 75.521 72.824 29.448 46.012 44.172 
80 0.0000 50.930 25.553 12.270 17.178 9.8160 
81 32.060 33.584 64.033 14.110 14.110 25.153 
82 81.666 55.380 0.0000 77.914 24.540 15.951 
83 68.257 32.751 58.286 46.626 15.337 25.767 
84 0.0000 55.248 81.585 15.337 29.448 45.399 
85 73.781 52.099 100.00 65.031 38.650 76.074 
86 100.00 50.537 82.952 117.79 36.196 58.896 
87 23.550 0.0000 50.439 5.5215 4.9080 13.497 
88 31.335 62.746 31.114 26.994 25.767 15.951 
89 100.00 18.310 49.418 106.75 14.724 26.380 
90 26.498 48.404 0.0000 17.178 14.110 6.7485 
91 47.910 100.00 85.744 75.460 87.730 73.620 
92 71.829 47.313 31.811 58.282 19.632 15.951 
93 31.304 64.132 69.316 29.448 34.356 36.810 
94 80.403 0.0000 54.321 61.350 10.429 22.699 
95 18.455 50.036 100.00 15.951 33.742 68.712 
96 50.653 100.00 16.345 75.460 75.460 33.742 
97 80.121 100.00 52.261 117.79 82.822 52.147 
98 0.0000 22.540 19.289 3.0675 3.6810 3.6810 
99 100.00 75.273 46.886 135.58 49.080 39.877 
100 0.0000 78.618 56.625 31.902 44.785 33.129 
101 51.137 80.627 100.00 57.669 63.190 82.822 
102 48.446 0.0000 17.864 20.859 3.0675 4.2945 
103 100.00 50.023 21.211 117.18 25.153 21.472 
104 50.115 20.118 0.0000 23.926 4.9080 4.2945 
105 58.099 72.426 33.158 55.828 38.037 22.699 
106 19.364 100.00 50.197 57.669 77.301 42.331 
107 50.683 19.177 100.00 25.767 22.699 65.031 
108 53.370 0.0000 81.576 25.767 14.110 40.491 
109 47.768 76.245 0.0000 47.853 40.491 18.405 
110 0.0000 18.927 55.503 2.4540 7.3620 16.564 
111 0.0000 13.277 0.0000 1.2270 1.8405 0.61350 
112 72.862 72.473 75.625 75.460 47.239 52.147 
113 100.00 13.904 0.0000 103.68 11.043 14.110 
114 86.349 0.0000 100.00 74.847 24.540 71.779 
115 100.00 41.941 100.00 114.11 38.037 79.755 
116 100.00 81.785 16.464 143.56 54.601 33.129 
117 0.0000 44.063 52.596 9.8160 15.951 18.405 
118 0.0000 0.0000 58.917 1.2270 5.5215 17.178 
119 59.250 24.551 29.789 33.742 7.3620 9.8160 
120 82.730 82.874 100.00 105.52 71.779 88.344 
121 80.039 0.0000 12.618 61.350 6.1350 9.2025 
122 60.957 47.729 77.817 44.785 26.994 42.945 
123 100.00 0.0000 38.618 103.68 11.656 20.245 
124 0.0000 40.090 100.00 9.8160 27.607 65.644 
125 0.0000 15.283 82.322 3.0675 12.883 38.650 
126 17.592 81.726 100.00 38.650 63.804 80.982 
127 100.00 14.130 100.00 104.91 29.448 76.074 
128 15.261 100.00 82.059 56.442 84.663 68.712 
129 47.770 79.418 60.389 51.534 49.080 38.650 
130 18.768 16.429 0.0000 4.9080 2.4540 1.2270 
131 55.634 100.00 65.763 82.209 81.595 56.442 
132 100.00 100.00 38.541 165.64 84.663 50.920 
133 17.421 0.0000 83.497 4.2945 12.270 39.264 
134 17.237 16.758 100.00 6.1350 20.245 62.577 
135 0.0000 15.067 30.039 1.8405 3.0675 4.9080 
136 0.0000 0.0000 86.505 2.4540 12.883 42.331 
137 75.736 72.799 50.020 80.982 43.558 33.129 
138 100.00 83.323 85.529 146.01 69.939 74.847 
139 100.00 100.00 64.894 165.64 90.184 65.644 
140 81.980 84.914 0.0000 103.07 55.828 28.834 
141 0.0000 63.757 15.490 19.632 25.767 12.270 
142 49.514 66.135 100.00 44.172 47.853 76.074 
143 100.00 0.0000 61.862 103.07 15.951 33.129 
144 24.308 45.410 49.831 14.724 16.564 17.791 
145 15.963 0.0000 17.047 2.4540 1.2270 2.4540 
146 87.497 100.00 100.00 134.97 96.933 101.84 
147 52.099 25.003 75.752 27.607 15.337 35.583 
148 14.909 81.162 0.0000 36.196 43.558 18.405 
149 0.0000 34.792 14.626 6.1350 7.3620 4.9080 
150 48.390 45.075 22.552 30.061 14.724 10.429 
151 83.545 65.965 100.00 91.411 52.761 80.982 
152 16.226 62.345 0.0000 20.859 24.540 10.429 
153 63.222 0.0000 14.914 35.583 4.2945 6.1350 
154 80.449 13.446 0.0000 61.963 7.3620 8.5890 
155 83.917 41.562 0.0000 75.460 16.564 13.497 
156 100.00 60.448 46.300 122.09 35.583 33.742 
157 15.584 0.0000 34.795 2.4540 2.4540 6.1350 
158 17.144 65.121 100.00 25.153 44.785 74.233 
159 83.602 55.334 62.667 83.436 30.675 36.810 
160 0.0000 82.190 14.220 34.969 45.399 19.632 
161 25.132 74.856 50.616 33.742 39.877 28.834 
162 0.0000 13.769 100.00 3.6810 19.018 61.963 
163 87.181 0.0000 0.0000 74.847 7.3620 9.8160 
164 0.0000 100.00 39.190 54.601 76.074 36.810 
165 78.047 65.914 19.865 79.141 33.742 20.245 
166 100.00 63.961 15.865 125.15 36.196 25.153 
167 100.00 45.955 36.032 113.50 23.926 25.153 
168 15.926 100.00 16.890 55.828 74.233 31.288 
169 41.459 100.00 0.0000 68.098 74.847 31.902 
170 48.707 37.288 48.139 26.994 13.497 17.178 
171 83.381 100.00 13.285 125.15 79.141 40.491 
172 78.129 25.303 75.621 61.350 18.405 40.491 
173 12.396 0.0000 0.0000 2.4540 0.61350 0.61350 
174 37.607 48.336 83.346 23.926 26.380 47.239 
175 35.588 15.356 0.0000 11.656 3.0675 2.4540 
176 61.245 100.00 100.00 90.798 94.479 95.092 
177 100.00 67.290 87.195 131.29 51.534 68.712 
178 0.0000 0.0000 30.615 0.61350 1.8405 4.9080 
179 35.187 81.789 83.323 46.012 58.282 58.282 
180 39.525 80.194 22.879 46.012 45.399 22.086 
181 50.634 34.593 0.0000 27.607 9.2025 6.1350 
182 14.175 100.00 63.146 56.442 79.755 50.920 
183 83.493 17.728 34.574 68.098 9.8160 15.337 
184 23.463 22.014 79.943 8.5890 14.110 37.423 
185 18.066 31.847 0.0000 7.3620 6.7485 3.0675 
186 87.201 100.00 81.361 133.13 91.411 77.914 
187 0.0000 100.00 87.950 55.215 86.503 75.460 
188 34.476 17.888 46.220 11.656 6.1350 12.270 
189 18.277 0.0000 67.390 4.2945 7.3620 24.540 
190 100.00 87.972 0.0000 150.92 63.190 36.196 
191 82.925 34.850 100.00 74.847 31.288 73.006 
192 0.0000 88.016 100.00 43.558 71.779 82.822 
193 36.104 85.655 100.00 50.920 69.325 82.822 
194 60.981 0.0000 0.0000 33.742 3.6810 4.2945 
195 51.466 61.826 78.106 42.331 36.196 46.012 
196 78.427 31.983 22.175 62.577 12.270 12.270 
197 66.017 44.321 0.0000 48.466 15.337 9.8160 
198 83.941 0.0000 84.177 68.098 18.405 49.080 
199 20.158 46.612 23.269 13.497 14.110 8.5890 
200 0.0000 100.00 62.618 53.988 79.755 50.307 
201 33.832 0.0000 13.933 9.2025 1.8405 2.4540 
202 100.00 17.286 16.322 104.29 11.656 15.951 
203 0.0000 42.204 83.926 9.8160 22.699 44.172 
204 0.0000 87.774 0.0000 40.491 52.147 22.086 
205 64.988 0.0000 59.017 39.264 8.5890 23.313 
206 14.677 0.0000 100.00 4.2945 18.405 61.963 
207 88.934 82.673 35.021 116.56 55.215 34.969 
208 0.0000 63.778 100.00 22.699 43.558 71.779 
209 83.429 17.674 100.00 71.166 26.380 67.485 
210 30.899 100.00 85.668 62.577 84.663 69.939 
211 83.680 0.0000 41.016 65.031 9.2025 15.951 
212 100.00 63.515 0.0000 119.02 33.742 22.699 
213 85.074 69.987 0.0000 90.184 36.196 21.472 
214 20.801 45.524 69.018 12.883 19.018 29.448 
215 21.382 82.482 73.017 36.810 52.761 45.399 
216 100.00 15.128 64.249 98.160 16.564 33.742 
217 36.522 0.0000 58.427 11.043 6.1350 17.791 
218 22.466 81.296 33.007 35.583 44.172 22.699 
219 62.531 87.152 0.0000 70.552 52.761 25.153 
220 84.120 85.397 67.886 103.07 60.123 50.920 
221 18.870 27.336 45.389 6.1350 7.3620 12.270 
222 66.439 100.00 14.444 90.798 74.233 34.356 
223 41.636 22.147 19.003 15.951 4.9080 4.9080 
224 61.271 100.00 81.940 84.663 84.049 67.485 
225 86.013 100.00 0.0000 124.54 77.301 36.810 
226 37.570 0.0000 0.0000 11.043 1.8405 1.8405 
227 100.00 16.132 84.102 100.61 22.086 50.920 
228 0.0000 100.00 13.619 50.920 71.166 29.448 
229 38.905 100.00 56.471 63.190 76.687 44.785 
230 100.00 15.382 34.563 97.546 12.883 18.405 
231 36.656 14.908 100.00 13.497 20.245 60.736 
232 0.0000 62.593 66.608 18.405 30.061 31.902 
233 66.347 12.528 100.00 39.264 22.086 65.031 
234 100.00 43.375 69.233 105.52 26.994 41.718 
235 100.00 56.360 61.236 112.88 32.515 38.650 
236 0.0000 86.194 44.955 36.196 49.693 28.834 
237 64.527 87.262 100.00 74.847 70.552 84.663 
238 34.411 0.0000 42.471 9.8160 3.6810 9.2025 
239 80.230 59.707 85.120 75.460 38.037 55.215 
240 20.625 19.056 14.791 4.9080 3.0675 3.0675 
241 15.341 34.221 100.00 9.2025 23.926 61.963 
242 36.777 0.0000 87.905 12.270 14.110 43.558 
243 34.598 56.247 100.00 25.767 36.810 67.485 
244 20.860 67.629 17.418 24.540 28.834 13.497 
245 44.958 60.843 18.054 32.515 23.926 12.270 
246 37.421 60.193 0.0000 26.380 22.699 10.429 
247 84.011 33.849 42.612 68.098 15.337 19.632 
248 17.241 60.339 37.743 19.018 23.313 15.951 
249 50.650 17.261 53.278 22.699 7.9755 17.178 
250 45.505 48.926 65.152 27.607 21.472 29.448 
251 44.567 84.081 39.649 50.307 49.080 28.221 
252 100.00 86.339 72.054 141.10 66.258 59.509 
253 68.140 61.135 0.0000 56.442 25.767 14.110 
254 17.930 66.986 81.403 24.540 37.423 46.626 
255 39.242 60.215 48.926 28.834 26.380 21.472 
256 20.099 18.770 62.967 5.5215 8.5890 20.859 
257 34.553 100.00 14.582 60.123 71.779 30.061 
258 87.345 0.0000 66.694 70.552 13.497 31.288 
259 0.0000 43.714 39.842 8.5890 12.883 11.656 
260 100.00 37.705 13.955 102.45 17.791 16.564 
261 31.265 86.993 0.0000 43.558 50.307 20.859 
262 51.402 82.661 81.338 54.601 55.215 56.442 
263 100.00 100.00 12.984 158.28 79.755 42.945 
264 0.0000 37.859 0.0000 6.7485 7.9755 3.0675 
265 62.092 58.215 100.00 50.307 40.491 72.393 
266 86.186 100.00 64.100 125.15 83.436 57.669 
267 100.00 35.251 85.898 107.36 28.834 56.442 
268 63.182 89.992 41.974 76.687 62.577 35.583 
269 13.504 100.00 0.0000 54.601 73.006 28.834 
270 100.00 0.0000 13.228 100.61 9.8160 14.110 
271 63.881 40.826 100.00 44.785 31.902 71.779 
272 69.387 84.838 20.792 79.755 53.374 28.221 
273 0.0000 70.279 45.136 23.926 33.742 22.699 
274 79.094 64.754 40.908 79.141 33.129 26.380 
275 62.385 54.099 17.396 47.239 20.859 13.497 
276 64.408 14.621 0.0000 37.423 4.9080 5.5215 
277 70.028 15.606 44.651 45.399 9.2025 15.951 
278 0.0000 63.544 0.0000 19.018 25.153 10.429 
279 83.475 47.274 20.502 76.074 20.245 15.951 
280 55.866 0.0000 32.671 27.607 4.2945 8.5890 
281 58.007 0.0000 100.00 30.675 21.472 66.871 
282 100.00 0.0000 87.698 101.84 22.699 58.282 
283 0.0000 13.792 67.215 1.8405 7.9755 24.540 
284 84.123 17.001 58.549 68.712 13.497 26.380 
285 59.579 32.873 15.966 35.583 9.2025 7.9755 
286 10.410 32.998 28.659 6.1350 7.9755 6.7485 
287 17.231 40.031 85.650 11.043 22.086 46.626 
288 37.568 41.561 10.108 19.018 11.043 6.7485 
289 0.0000 69.015 85.092 24.540 42.331 52.761 
290 14.442 100.00 36.187 55.215 74.847 34.969 
291 100.00 40.549 0.0000 109.82 19.018 17.178 
292 82.143 45.435 78.429 74.233 28.221 46.626 
293 52.674 0.0000 67.300 24.540 9.2025 26.380 
294 0.0000 87.868 66.793 39.877 59.509 44.172 
295 86.530 100.00 40.524 127.61 82.822 46.626 
296 71.777 85.586 67.232 84.049 61.350 50.307 
297 43.216 100.00 31.671 67.485 75.460 36.196 
298 39.245 32.908 85.845 18.405 20.245 46.626 
299 0.0000 45.662 67.543 10.429 19.018 28.834 
300 12.161 100.00 100.00 55.828 90.184 92.025 
301 67.049 0.0000 85.516 41.104 15.951 47.239 
302 100.00 89.041 100.00 150.31 80.982 97.546 
303 20.246 60.698 56.526 21.472 26.994 25.767 
304 52.177 55.457 40.416 37.423 22.699 18.405 
305 72.617 87.018 83.932 88.957 67.485 65.644 
306 40.512 16.723 66.475 15.951 9.8160 25.767 
307 68.507 49.232 50.605 53.374 22.086 23.926 
308 65.622 100.00 54.525 92.638 80.982 48.466 
309 54.115 37.240 66.394 31.902 17.178 29.448 
310 100.00 76.138 31.267 132.52 48.466 33.742 
311 54.728 65.623 0.0000 45.399 28.834 14.110 
312 63.126 12.526 64.370 35.583 11.043 26.380 
313 72.827 18.080 23.704 48.466 7.9755 9.8160 
314 23.268 15.278 34.947 5.5215 4.2945 7.3620 
315 87.648 68.954 59.645 97.546 41.104 39.877 
316 0.0000 85.595 85.198 38.650 61.350 61.963 
317 35.798 84.371 69.210 46.626 55.215 46.012 
318 36.062 47.494 35.919 21.472 15.951 12.883 
319 86.083 36.277 59.152 77.301 19.632 29.448 
320 58.210 100.00 30.361 83.436 76.074 37.423 
321 46.745 14.614 32.317 19.632 4.9080 7.3620 
322 81.573 73.869 86.954 91.411 54.601 64.417 
323 85.991 49.387 48.206 82.822 24.540 26.380 
324 28.062 87.906 19.654 46.012 53.988 23.926 
325 68.992 17.993 85.124 45.399 18.405 46.626 
326 100.00 66.147 100.00 125.15 55.828 85.890 
327 33.358 64.806 84.517 29.448 38.650 52.761 
328 41.351 17.736 80.522 16.564 14.110 39.264 
329 100.00 100.00 88.719 161.35 95.706 90.184 
330 66.336 0.0000 44.320 38.037 7.3620 14.724 
331 64.850 67.090 12.293 58.282 31.288 17.178 
332 15.262 31.268 63.277 7.3620 12.270 22.699 
333 15.008 43.663 37.300 11.043 12.883 11.656 
334 0.0000 57.895 38.078 15.951 22.086 14.724 
335 66.599 58.458 67.871 56.442 31.288 37.423 
336 59.191 18.651 15.215 31.902 5.5215 6.1350 
337 66.781 31.140 84.629 44.785 21.472 47.239 
338 88.033 85.158 52.140 115.34 60.736 42.945 
339 36.882 100.00 100.00 65.644 92.025 91.411 
340 26.102 33.094 17.006 10.429 7.3620 4.9080 
341 56.309 36.861 35.862 33.742 12.270 12.883 
342 45.839 65.587 67.033 38.037 34.969 36.810 
343 83.709 81.172 16.406 99.387 50.920 27.607 
344 0.0000 48.132 13.005 10.429 14.110 6.7485 
345 87.176 50.021 100.00 85.890 39.877 77.914 
346 51.219 84.244 13.730 57.055 49.693 23.313 
347 60.606 71.415 48.406 56.442 38.037 28.834 
348 0.0000 11.359 12.718 1.8405 1.2270 1.8405 
349 86.429 49.705 33.145 83.436 22.699 20.245 
350 34.056 40.958 100.00 19.018 28.834 66.871 
351 100.00 30.557 59.628 106.75 20.245 33.129 
352 88.497 26.902 13.449 79.141 11.043 12.270 
353 14.167 51.980 88.218 15.951 29.448 51.534 
354 13.784 12.983 49.370 3.0675 5.5215 12.270 
355 15.018 88.441 48.062 42.331 57.055 33.129 
356 87.790 25.769 89.215 78.528 24.540 57.055 
357 0.0000 33.206 55.865 5.5215 11.656 18.405 
358 74.324 76.029 35.536 78.528 44.172 28.221 
359 65.863 57.223 42.324 52.761 26.380 21.472 
360 30.893 54.646 13.136 21.472 19.018 9.2025 
361 0.0000 34.360 28.321 5.5215 7.9755 6.7485 
362 15.443 77.087 85.116 33.129 50.920 57.055 
363 63.381 68.947 68.521 58.282 40.491 41.718 
364 69.733 27.566 42.917 47.239 11.043 16.564 
365 32.754 100.00 42.760 61.963 74.233 38.650 
366 47.096 29.481 34.829 22.699 8.5890 10.429 
367 8.5451 71.948 62.695 26.994 38.650 33.742 
368 0.0000 86.048 29.300 38.037 51.534 23.926 
369 53.697 51.572 85.367 38.650 30.675 50.307 
370 17.608 56.690 12.515 17.178 20.245 9.2025 
371 90.638 14.414 49.227 81.595 12.883 22.699 
372 63.248 63.640 89.550 55.215 42.331 61.350 
373 100.00 85.976 58.455 144.17 65.644 51.534 
374 9.8311 28.027 7.5567 4.9080 4.9080 2.4540 
375 89.831 64.313 69.506 98.160 41.104 46.012 
376 31.754 12.995 25.543 9.2025 3.0675 4.9080 
377 75.914 45.966 64.957 61.963 23.926 34.356 
378 7.5735 50.695 58.941 12.883 20.245 23.926 
379 100.00 69.835 58.912 128.22 44.785 44.172 
380 32.211 34.376 48.339 14.724 11.043 15.337 
381 13.901 12.159 73.555 4.2945 9.8160 30.061 
382 87.071 9.0280 77.653 74.233 17.791 42.331 
383 23.272 85.409 84.290 42.945 61.350 60.736 
384 93.289 39.480 26.145 93.865 18.405 17.791 
385 65.769 59.630 30.967 55.828 26.994 18.405 
386 100.00 32.265 41.803 107.98 18.405 23.926 
387 86.568 85.281 86.961 114.11 69.939 73.006 
388 52.577 86.830 30.016 61.963 55.215 28.221 
389 47.921 40.199 76.902 27.607 21.472 38.650 
390 22.360 86.619 61.580 42.331 57.669 41.104 
391 52.232 33.601 88.787 29.448 22.699 52.147 
392 0.0000 28.523 86.267 4.9080 17.791 44.785 
393 43.497 67.879 39.551 37.423 33.129 21.472 
394 39.877 45.261 0.0000 22.699 13.497 6.7485 
395 86.940 12.430 24.699 73.620 8.5890 13.497 
396 28.363 55.339 90.398 22.699 33.129 56.442 
397 39.018 70.534 57.879 37.423 37.423 31.902 
398 12.833 28.519 78.828 6.7485 15.337 36.196 
399 68.350 31.815 69.975 47.239 17.791 33.742 
400 56.520 26.226 41.626 31.288 9.2025 13.497 
401 12.938 46.218 0.0000 11.043 12.883 5.5215 
402 8.6938 60.179 26.117 18.405 23.313 12.270 
403 51.995 89.429 96.608 66.258 74.847 81.595 
404 46.905 47.746 48.909 29.448 19.018 19.632 
405 14.352 81.814 19.479 35.583 45.399 20.245 
406 71.482 38.117 12.273 52.147 13.497 10.429 
407 86.616 60.785 10.012 89.571 29.448 19.632 
408 71.811 88.979 52.186 88.344 63.190 41.718 
409 43.213 100.00 72.083 69.325 82.209 59.509 
410 73.920 23.444 8.2853 52.147 7.9755 8.5890 
411 40.629 85.534 53.423 51.534 53.988 36.196 
412 38.955 52.128 22.885 25.153 17.791 11.043 
413 46.480 12.229 8.6707 19.018 3.0675 3.6810 
414 40.855 33.301 22.309 19.018 8.5890 7.3620 
415 76.365 66.787 61.060 76.687 38.650 37.423 
416 7.5076 12.025 20.590 2.4540 1.8405 3.0675 
417 85.930 27.031 0.0000 74.233 11.043 10.429 
418 100.00 87.757 44.060 148.47 66.258 44.172 
419 41.543 25.624 54.896 17.791 9.8160 18.405 
420 59.533 76.669 91.789 61.350 56.442 69.325 
421 58.226 12.079 28.862 30.061 4.9080 8.5890 
422 50.514 8.8602 88.281 23.926 16.564 47.853 
423 41.983 0.0000 31.301 14.724 3.0675 6.7485 
424 28.024 36.455 77.877 13.497 18.405 37.423 
425 12.718 41.027 11.129 9.2025 10.429 5.5215 
426 26.194 75.573 88.088 34.969 50.920 61.350 
427 28.936 71.474 37.671 31.902 34.969 20.859 
428 90.497 74.770 26.512 111.04 44.172 28.834 
429 17.514 75.984 41.507 31.902 39.877 23.926 
430 16.621 64.069 68.891 23.313 32.515 35.583 
431 12.420 21.661 36.669 4.2945 4.9080 7.9755 
432 52.915 46.814 10.465 34.356 15.337 9.2025 
433 56.979 91.194 52.490 72.393 65.031 40.491 
434 25.140 52.299 42.419 17.791 19.632 15.951 
435 25.587 6.8296 13.004 6.1350 1.8405 1.8405 
436 55.018 14.818 41.328 27.607 6.7485 11.656 
437 93.397 56.942 87.959 103.68 41.718 63.804 
438 28.374 12.057 85.683 9.2025 14.110 43.558 
439 78.265 6.7088 92.468 57.669 20.859 58.282 
440 39.694 71.314 6.3658 37.423 33.129 15.951 
441 73.259 45.059 87.294 58.896 29.448 55.828 
442 26.381 57.692 76.454 22.086 30.061 41.104 
443 66.587 33.629 31.299 44.172 11.656 12.883 
444 88.523 74.434 46.718 105.52 45.399 35.583 
445 76.836 59.920 49.912 72.393 30.675 28.221 
446 33.152 90.418 31.148 50.920 58.282 28.221 
447 55.924 53.388 68.505 40.491 26.994 34.969 
448 77.248 91.798 41.448 101.84 67.485 38.650 
449 26.737 89.225 45.445 47.239 58.896 32.515 
450 87.642 100.00 25.942 132.52 81.595 42.331 
451 68.631 100.00 40.532 97.546 79.755 42.945 
452 14.485 50.449 49.078 14.110 19.632 18.405 
453 10.654 10.664 89.702 3.6810 14.724 47.853 
454 31.962 49.108 62.920 19.632 21.472 27.607 
455 8.6779 22.468 68.278 4.2945 10.429 25.767 
456 74.727 90.586 6.3447 95.092 60.736 30.675 
457 0.0000 12.136 44.106 1.8405 4.2945 9.8160 
458 43.350 78.123 73.610 46.012 49.080 47.239 
459 10.925 11.786 9.5801 2.4540 1.2270 1.8405 
460 15.591 37.386 50.832 8.5890 12.270 15.337 
461 10.685 68.959 9.3113 23.313 29.448 12.270 
462 92.017 72.247 12.692 107.36 41.104 23.926 
463 89.839 77.431 73.400 108.59 54.601 52.761 
464 47.450 74.511 18.753 44.172 37.423 18.405 
465 50.097 90.816 69.461 61.963 65.644 50.307 
466 82.755 34.052 82.994 67.485 23.926 49.080 
467 46.786 72.919 85.794 43.558 47.239 58.282 
468 9.3304 90.457 73.518 42.945 63.804 52.147 
469 88.590 61.902 22.128 92.638 30.061 21.472 
470 100.00 61.262 74.222 120.25 40.491 51.534 
471 86.777 8.8992 8.4672 71.166 7.9755 9.8160 
472 39.582 85.966 11.798 49.080 50.307 22.086 
473 85.958 0.0000 24.986 69.939 7.9755 11.656 
474 80.299 22.552 47.163 61.350 12.270 19.018 
475 7.2180 45.128 76.547 11.043 21.472 35.583 
476 55.989 48.521 58.428 36.810 20.859 25.153 
477 50.728 10.774 73.284 22.699 11.043 31.288 
478 71.269 10.344 11.008 44.785 5.5215 6.7485 
479 91.768 45.194 10.385 89.571 19.632 15.951 
480 7.8976 42.553 25.130 9.2025 11.043 7.9755 
481 54.269 55.846 25.175 38.037 21.472 14.110 
482 41.937 24.646 5.4249 16.564 5.5215 3.6810 
483 89.502 33.423 70.991 82.209 21.472 39.264 
484 75.301 54.745 14.159 64.417 22.699 14.724 
485 76.653 6.2202 65.750 53.988 12.270 29.448 
486 58.072 77.769 7.4688 57.055 42.331 20.245 
487 27.429 73.801 76.267 32.515 44.172 46.626 
488 39.961 56.279 74.128 27.607 28.834 39.264 
489 23.430 28.561 70.622 9.2025 12.883 28.834 
490 91.285 49.258 68.377 91.411 28.834 41.104 
491 95.591 89.122 11.382 134.97 62.577 35.583 
492 28.451 92.151 76.841 50.307 67.485 56.442 
493 26.242 26.080 53.808 9.2025 8.5890 16.564 
494 15.957 92.746 24.983 46.626 59.509 26.994 
495 13.563 9.1545 61.533 3.0675 6.1350 19.632 
496 13.216 24.593 54.939 4.9080 8.5890 16.564 
497 91.885 89.769 79.537 128.83 74.233 67.485 
498 100.00 88.684 29.334 148.47 65.031 38.650 
499 34.090 65.771 20.136 30.061 28.221 13.497 
500 20.961 77.373 9.9329 33.129 39.264 17.178 
501 48.985 66.059 50.556 40.491 32.515 26.380 
502 92.409 9.0241 90.897 84.049 23.313 59.509 
503 40.340 11.090 52.408 14.110 6.1350 15.951 
504 41.367 58.198 88.277 30.061 34.969 55.215 
505 72.147 77.604 91.982 77.301 58.282 73.006 
506 12.761 67.714 50.147 23.313 31.902 24.540 
507 76.617 25.882 91.445 57.669 23.313 58.896 
508 92.734 34.742 50.285 90.184 18.405 25.767 
509 16.114 24.640 92.845 6.7485 18.405 53.374 
510 22.589 72.255 61.762 30.061 38.650 33.742 
511 79.742 58.911 30.090 76.074 26.994 20.245 
512 75.000 100.00 87.265 107.36 90.798 79.755 
513 22.068 58.052 24.509 19.632 21.472 11.656 
514 29.302 20.341 8.3315 9.2025 3.0675 2.4540 
515 75.009 40.707 41.951 58.896 17.178 19.018 
516 76.599 13.357 74.764 55.215 15.337 38.037 
517 10.272 88.110 94.612 42.331 69.325 76.687 
518 34.093 23.728 89.777 13.497 17.791 50.307 
519 29.867 13.694 72.950 9.2025 10.429 30.061 
520 64.983 91.010 77.614 79.141 69.939 61.963 
521 66.135 26.770 20.928 40.491 7.9755 9.2025 
522 36.207 25.309 75.344 14.110 13.497 33.742 
523 78.931 73.018 10.687 83.436 38.650 22.086 
524 30.391 22.415 20.277 9.8160 4.2945 4.2945 
525 11.242 82.956 64.472 35.583 50.920 40.491 
526 80.459 87.628 28.607 101.23 58.282 33.129 
527 27.707 31.870 88.315 12.270 19.632 49.080 
528 62.060 36.458 46.606 39.264 14.110 17.791 
529 29.542 11.104 53.546 7.9755 6.1350 15.951 
530 68.762 19.114 33.778 43.558 7.9755 11.656 
531 59.637 48.524 31.174 40.491 17.791 14.110 
532 48.298 33.520 100.00 25.767 26.380 68.098 
533 45.598 28.163 66.475 20.859 13.497 26.994 
534 29.918 44.928 90.506 17.791 26.994 54.601 
535 78.316 92.636 77.206 103.07 76.074 65.644 
536 91.281 57.367 55.776 95.706 31.902 34.356 
537 21.692 25.080 26.495 6.7485 4.9080 5.5215 
538 74.304 63.813 94.636 69.939 46.012 71.779 
539 88.481 29.745 32.468 78.528 14.110 16.564 
540 59.486 41.236 87.042 39.264 25.767 52.761 
541 92.045 78.449 60.137 117.18 52.761 46.012 
542 61.977 24.673 6.6648 36.196 7.3620 6.7485 
543 40.162 92.786 90.522 60.736 77.914 76.074 
544 36.748 77.066 93.097 42.945 56.442 70.552 
545 20.161 69.446 29.150 26.994 32.515 17.178 
546 47.187 88.771 0.0000 59.509 57.669 25.153 
547 44.188 43.219 90.474 26.380 27.607 55.215 
548 8.9634 92.695 8.7975 46.012 61.963 25.767 
549 32.387 45.286 72.510 19.018 21.472 34.969 
550 48.879 44.876 39.601 29.448 16.564 15.337 
551 61.287 11.463 77.817 33.742 14.724 38.650 
552 25.396 43.768 11.365 14.110 12.883 6.1350 
553 76.983 53.137 73.131 68.712 31.288 43.558 
554 43.083 65.437 28.359 36.196 29.448 17.178 
555 11.708 51.209 32.796 13.497 17.791 12.270 
556 71.238 41.136 23.296 53.988 14.724 12.883 
557 21.758 7.4731 22.877 4.9080 1.8405 3.6810 
558 23.721 37.471 27.997 11.043 9.8160 7.9755 
559 10.847 0.0000 52.434 2.4540 4.2945 14.110 
560 52.184 32.794 25.185 28.221 9.8160 8.5890 
561 25.164 57.264 2.5113 20.245 20.859 9.2025 
562 25.531 62.973 45.088 25.153 28.834 20.245 
563 59.406 92.015 9.9812 76.074 64.417 28.834 
564 9.0031 43.883 94.414 11.656 27.607 58.896 
565 29.380 24.618 40.510 9.8160 6.7485 10.429 
566 56.497 10.252 5.6832 28.221 3.6810 4.9080 
567 70.521 20.255 56.201 47.239 11.656 22.699 
568 81.365 40.212 31.436 69.325 17.178 17.178 
569 56.550 19.280 86.012 30.675 17.791 47.853 
570 25.096 37.115 57.433 11.656 14.110 20.859 
571 87.229 43.818 88.570 84.663 31.902 60.123 
572 9.0945 89.498 36.178 42.945 57.669 29.448 
573 60.107 91.337 22.013 76.074 62.577 30.061 
574 43.216 91.406 24.486 59.509 60.736 28.221 
575 55.315 58.321 10.243 42.331 23.926 12.883 
576 63.269 92.590 62.685 82.209 71.166 49.693 
577 20.915 89.348 8.0709 44.785 57.055 23.313 
578 33.841 42.636 23.687 17.791 12.883 8.5890 
579 82.320 36.054 11.955 69.939 14.724 12.270 
580 78.197 45.345 53.373 67.485 22.699 26.380 
581 87.492 64.105 49.348 94.479 36.810 33.129 
582 80.208 74.738 68.707 90.184 50.307 48.466 
583 12.847 33.194 39.194 6.7485 8.5890 10.429 
584 15.215 55.484 78.368 17.791 28.834 42.945 
585 25.437 6.1049 39.533 6.7485 3.0675 8.5890 
586 57.870 49.584 46.944 41.104 20.859 20.859 
587 67.620 65.849 53.975 63.190 36.196 31.288 
588 26.643 41.991 38.871 14.724 12.883 12.883 
589 42.800 8.7865 22.456 15.951 3.6810 4.9080 
590 57.049 35.385 77.322 35.583 20.245 38.650 
591 36.112 43.832 54.787 20.245 17.791 20.859 
592 62.719 62.395 77.348 54.601 38.037 47.239 
593 60.706 81.416 54.884 66.258 53.374 37.423 
594 90.695 4.9508 56.719 81.595 12.883 26.994 
595 43.936 24.373 43.898 19.018 7.9755 12.883 
596 4.3825 24.210 30.612 3.0675 5.5215 6.1350 
597 53.911 79.942 42.742 57.055 48.466 29.448 
598 90.172 22.149 68.288 82.209 17.791 36.196 
599 77.586 29.345 63.000 60.736 16.564 30.061 
600 60.572 25.668 63.187 36.196 12.883 26.380 
601 97.729 10.927 74.359 99.387 19.018 43.558 
602 57.769 8.0576 53.146 30.061 7.9755 18.405 
603 77.517 92.691 61.488 105.52 73.006 51.534 
604 44.198 38.831 60.002 24.540 15.951 23.926 
605 65.034 81.736 33.440 73.006 50.920 28.221 
606 67.829 69.791 24.123 65.644 36.196 20.859 
607 25.001 99.668 13.437 59.509 75.460 31.288 
608 89.683 25.837 56.548 82.822 16.564 28.221 
609 41.656 51.246 11.867 26.994 17.791 9.2025 
610 23.720 38.131 96.840 13.497 26.380 61.350 
611 78.049 6.5915 25.803 56.442 7.3620 11.043 
612 46.116 56.291 55.290 33.129 25.767 26.380 
613 92.023 9.1483 37.844 84.663 10.429 17.791 
614 91.068 89.904 23.497 128.83 66.258 36.810 
615 76.477 27.045 32.402 57.669 11.043 14.110 
616 42.661 5.2197 80.136 17.178 12.270 38.650 
617 6.2584 65.435 77.208 22.699 36.810 44.785 
618 89.710 95.846 52.578 134.97 78.528 51.534 
619 88.397 77.149 94.397 111.66 63.190 79.755 
620 78.888 91.034 93.609 107.36 80.368 84.049 
621 47.820 92.501 59.000 65.644 68.712 44.785 
622 23.826 47.444 80.539 16.564 25.153 42.945 
623 9.0413 12.290 37.978 2.4540 3.6810 7.3620 
624 23.331 16.308 46.267 6.7485 5.5215 11.656 
625 35.756 10.704 35.900 11.656 4.2945 7.9755 
626 2.9969 77.210 88.879 31.902 53.988 63.190 
627 28.436 75.743 23.117 34.969 39.264 19.018 
628 9.0221 78.989 30.580 32.515 43.558 22.086 
629 8.8030 17.371 0.30943 2.4540 1.8405 1.8405 
630 60.160 36.719 3.7856 38.037 11.656 7.9755 
631 7.0698 90.899 57.373 44.785 63.190 40.491 
632 79.721 9.5270 45.163 61.350 9.8160 18.405 
633 10.879 74.236 95.746 30.675 52.761 71.779 
634 64.217 22.086 74.373 40.491 15.337 36.196 
635 70.017 40.853 76.607 53.988 23.926 42.331 
636 4.7334 24.411 48.203 4.2945 7.3620 12.883 
637 50.973 26.358 13.005 25.153 6.1350 6.1350 
638 2.5724 55.065 90.994 15.951 33.742 55.828 
639 90.879 45.601 57.982 91.411 25.767 33.129 
640 68.145 79.947 44.862 74.233 50.307 33.129 
641 1.4829 67.595 54.158 22.699 34.356 26.994 
642 98.031 12.492 26.865 98.160 11.043 17.178 
643 76.470 93.209 18.886 101.84 68.098 34.356 
644 87.292 66.922 80.462 98.773 46.626 57.669 
645 10.233 96.829 47.233 51.534 70.552 39.264 
646 68.028 67.167 39.031 64.417 34.969 24.540 
647 45.312 94.998 9.2426 65.644 66.871 29.448 
648 77.970 53.709 40.015 71.166 25.767 22.086 
649 39.314 57.645 38.800 29.448 23.926 17.178 
650 57.297 82.865 67.439 65.031 57.669 46.626 
651 37.555 22.599 31.928 14.110 5.5215 7.9755 
652 92.350 23.597 40.911 87.730 14.110 20.245 
653 9.3660 69.976 21.141 25.153 32.515 15.951 
654 51.187 19.140 23.012 23.926 5.5215 6.7485 
655 79.397 80.212 79.858 94.479 60.123 61.963 
656 95.392 55.226 12.927 107.36 27.607 20.859 
657 41.375 92.945 46.055 60.123 65.644 37.423 
658 45.146 82.618 89.901 53.988 61.963 69.325 
659 77.443 63.822 71.275 77.914 39.264 45.399 
660 53.973 31.254 55.289 30.675 12.883 20.859 
661 67.321 92.812 91.875 90.184 80.368 80.368 
662 39.436 37.141 40.709 19.632 11.656 12.883 
663 97.731 46.918 91.781 111.66 37.423 67.485 
664 40.993 6.1961 67.428 15.337 9.2025 25.767 
665 79.123 80.606 57.718 94.479 55.215 42.331 
666 28.913 52.537 29.968 20.245 19.018 12.270 
667 14.658 37.254 73.035 9.2025 17.178 31.902 
668 82.795 16.173 87.132 66.871 21.472 53.374 
669 8.3262 91.659 83.695 46.012 72.393 64.417 
670 45.527 77.031 49.285 47.239 44.785 30.675 
671 9.0854 40.031 62.080 8.5890 15.337 23.926 
672 95.919 70.219 40.212 120.25 42.331 33.129 
673 42.670 92.336 77.786 61.963 71.779 60.123 
674 94.260 40.143 78.486 99.387 28.221 49.080 
675 65.647 53.082 89.436 53.988 34.969 58.282 
676 81.521 18.364 16.183 65.031 8.5890 10.429 
677 8.4681 2.0260 9.4857 1.8405 0.61350 1.2270 
678 30.651 60.550 56.553 25.153 27.607 25.767 
679 53.483 73.043 73.646 49.693 44.172 44.785 
680 90.408 54.335 1.4985 91.411 25.153 17.178 
681 26.668 7.7075 63.496 7.3620 7.3620 20.859 
682 58.933 25.917 94.913 32.515 22.086 57.669 
683 9.8548 0.76371 72.617 2.4540 8.5890 27.607 
684 47.990 75.517 31.176 44.785 39.264 21.472 
685 48.087 9.0808 60.091 19.632 7.9755 20.245 
686 10.988 21.876 19.614 3.6810 3.6810 3.6810 
687 22.598 55.646 65.078 18.405 24.540 28.834 
688 9.0697 82.142 78.531 34.969 53.374 50.920 
689 90.301 42.459 39.120 85.890 19.018 21.472 
690 47.378 36.472 11.171 23.926 9.2025 6.1350 
691 49.382 1.8032 9.6600 20.245 2.4540 3.6810 
692 1.9703 20.522 9.5307 2.4540 3.0675 1.8405 
693 81.649 69.738 31.735 84.049 38.037 24.540 
694 34.530 73.626 67.130 34.969 41.718 38.037 
695 81.659 80.940 43.479 93.252 52.147 34.356 
696 10.291 63.628 90.197 20.245 38.650 57.055 
697 9.3825 51.554 18.669 12.270 15.951 8.5890 
698 17.762 96.201 72.191 50.307 73.006 54.601 
699 67.560 52.693 6.6256 51.534 19.632 12.270 
700 45.853 7.7641 41.225 17.791 4.9080 10.429 
701 10.950 73.197 73.054 27.607 41.718 42.331 
702 30.698 39.723 1.5250 14.110 9.2025 4.9080 
703 81.002 52.333 91.825 73.620 35.583 63.190 
704 51.213 8.0050 98.430 24.540 19.632 61.350 
705 5.4368 7.4372 80.307 2.4540 11.043 34.969 
706 23.483 5.5586 76.358 6.1350 10.429 31.288 
707 32.278 78.328 11.186 38.037 40.491 17.791 
708 4.5816 10.694 55.933 1.8405 5.5215 15.951 
709 89.829 62.524 36.614 95.092 33.129 25.767 
710 80.544 47.439 8.1742 68.712 19.018 13.497 
711 52.750 18.751 64.422 25.767 10.429 25.153 
712 62.358 2.6644 71.659 33.742 11.656 31.902 
713 64.674 45.928 67.561 45.399 22.699 33.742 
714 9.4766 33.184 90.141 7.3620 20.245 49.693 
715 70.466 56.323 80.091 59.509 33.742 49.080 
716 57.237 71.111 99.776 53.988 53.374 77.914 
717 87.665 54.898 77.235 88.344 34.356 49.080 
718 16.330 71.595 0.85939 26.380 33.129 13.497 
719 35.300 79.117 32.908 40.491 43.558 22.699 
720 28.667 65.599 9.3944 26.380 26.994 12.270 
721 6.4435 54.089 70.225 14.110 25.767 32.515 
722 61.839 6.8281 38.810 32.515 6.1350 11.656 
723 26.820 89.870 94.786 47.239 73.006 77.914 
724 5.7523 92.776 20.962 43.558 61.350 26.380 
725 75.073 63.309 7.8752 68.098 30.061 17.178 
726 61.102 20.846 50.693 33.742 9.2025 17.791 
727 22.212 92.446 35.502 46.626 61.350 30.675 
728 92.086 35.290 8.3735 87.117 14.724 14.110 
729 6.1371 56.812 8.6847 14.724 19.018 9.2025 
730 17.496 95.134 90.968 50.920 77.914 74.847 
731 97.652 22.856 91.040 98.160 25.767 61.963 
732 49.838 56.677 94.927 36.810 37.423 65.031 
733 52.347 66.189 89.979 44.785 43.558 61.350 
734 9.2025 61.070 60.052 19.018 28.221 26.994 
735 91.322 33.889 95.067 86.503 30.675 66.871 
736 35.535 50.421 47.701 21.472 19.632 18.405 
737 90.687 67.765 92.424 102.45 51.534 72.393 
738 23.140 27.979 7.2528 7.3620 4.9080 3.0675 
739 74.571 37.346 94.340 56.442 28.834 63.804 
740 94.499 74.711 82.469 114.72 55.828 65.031 
741 43.662 60.242 6.7089 31.288 23.313 11.656 
742 94.229 53.959 43.646 100.00 28.221 28.221 
743 88.819 11.383 66.503 76.074 14.724 33.742 
744 32.047 21.909 62.334 11.043 9.8160 22.086 
745 54.950 92.541 82.626 69.939 72.393 65.644 
746 71.956 56.212 58.905 60.736 28.221 30.675 
747 99.325 70.902 23.244 125.77 41.718 28.221 
748 90.147 23.875 23.537 79.755 11.043 14.110 
749 4.9251 37.670 45.258 7.3620 11.043 13.497 
750 92.003 4.3641 46.508 82.209 11.043 20.859 
751 8.0287 68.481 36.597 23.313 31.288 18.405 
752 94.712 55.380 27.877 100.61 27.607 22.086 
753 59.036 41.793 22.693 36.810 13.497 11.043 
754 75.085 4.1457 81.543 50.920 15.951 44.172 
755 63.301 73.580 81.794 61.350 49.080 55.828 
756 87.889 97.159 72.707 126.99 82.209 66.258 
757 39.453 9.5152 91.318 14.724 16.564 50.920 
758 26.353 18.572 94.841 9.2025 19.018 55.828 
759 19.325 8.4249 4.4960 4.2945 1.2270 1.2270 
760 14.945 80.063 53.214 34.969 47.239 32.515 
761 56.393 7.7606 18.733 28.834 4.2945 5.5215 
762 53.296 91.987 40.941 70.552 65.644 36.196 
763 91.714 5.4089 17.461 85.276 9.2025 12.270 
764 35.214 69.883 47.511 34.969 36.196 25.767 
765 54.174 65.046 39.976 46.626 32.515 22.086 
766 0.48739 73.380 13.583 26.994 36.196 15.951 
767 45.038 24.464 90.440 21.472 20.245 53.374 
768 63.657 41.354 57.623 44.172 19.018 26.380 
769 60.349 99.318 73.525 87.117 87.117 65.644 
770 45.802 53.303 31.659 31.288 20.859 14.724 
771 66.010 80.362 74.383 73.006 57.055 54.601 
772 23.949 64.714 91.592 26.994 42.331 63.190 
773 74.347 9.4171 54.078 53.374 10.429 22.086 
774 92.529 91.743 63.785 137.42 75.460 58.282 
775 27.251 94.198 55.878 54.601 70.552 42.945 
776 35.570 11.733 10.395 11.656 2.4540 3.0675 
777 2.5649 51.038 46.451 13.497 19.632 17.178 
778 91.133 22.688 78.884 87.730 21.472 47.239 
779 9.3684 3.2632 25.712 1.8405 1.2270 3.6810 
780 89.782 58.781 98.566 100.61 47.853 80.982 
781 91.178 92.619 40.078 134.97 74.233 44.172 
782 67.918 75.593 60.707 71.779 48.466 40.491 
783 21.214 7.6666 93.134 6.7485 16.564 53.988 
784 16.312 15.496 27.702 3.6810 3.6810 4.9080 
785 55.058 61.647 63.033 44.785 32.515 34.356 
786 64.827 43.743 39.237 46.626 17.178 17.791 
787 76.437 76.558 23.556 85.276 45.399 25.767 
788 23.505 31.715 37.321 9.2025 7.9755 9.8160 
789 73.049 16.469 95.896 53.374 23.313 63.804 
790 86.350 91.415 7.6506 123.31 66.871 34.969 
791 75.383 18.628 65.782 56.442 14.110 30.675 
792 69.893 90.723 32.423 90.798 65.031 34.356 
793 48.410 50.555 75.728 33.742 26.994 40.491 
794 66.070 6.5086 22.487 40.491 5.5215 7.9755 
795 56.705 65.792 24.032 50.307 31.902 17.791 
796 76.562 34.662 51.314 61.350 16.564 23.313 
797 79.282 37.864 70.629 66.871 22.699 38.037 
798 61.860 83.501 85.092 71.779 64.417 65.644 
799 55.206 71.204 58.769 52.147 41.104 34.356 
800 41.161 67.679 77.016 38.037 41.104 47.853 
801 39.082 35.254 73.407 19.632 17.791 34.356 
802 54.232 98.131 91.703 79.755 89.571 83.436 
803 52.316 68.565 11.225 46.012 32.515 16.564 
804 13.126 31.651 17.948 6.7485 6.7485 4.2945 
805 41.211 67.640 94.245 38.650 47.239 68.712 
806 6.2691 78.009 44.653 32.515 43.558 26.380 
807 18.472 48.506 58.249 14.724 19.632 23.313 
808 91.193 95.684 89.468 139.88 89.571 85.276 
809 90.576 89.753 96.277 130.06 82.822 90.184 
810 91.055 18.181 4.8873 85.276 9.8160 12.270 
811 9.5158 57.466 44.934 17.791 23.926 18.405 
812 74.253 8.6243 35.462 52.147 7.9755 12.883 
813 30.958 79.592 58.964 41.104 49.693 35.583 
814 64.297 44.200 12.447 46.012 15.951 11.043 
815 90.387 78.022 2.1230 113.50 49.080 27.607 
816 38.276 57.670 62.470 28.834 28.221 30.675 
817 69.306 81.298 10.013 77.914 50.307 25.153 
818 11.786 56.194 98.458 18.405 37.423 69.939 
819 37.361 92.605 63.696 57.669 69.325 48.466 
820 99.099 26.774 11.310 105.52 14.110 15.951 
821 33.690 80.487 44.100 43.558 47.239 28.834 
822 58.378 47.696 96.771 42.945 33.742 66.871 
823 8.3100 80.971 8.1118 34.356 44.172 18.405 
824 36.053 31.424 11.914 15.337 7.3620 4.9080 
825 23.960 74.365 97.709 34.969 55.215 73.620 
826 2.2643 18.895 91.763 3.6810 17.178 49.693 
827 33.230 92.745 7.8538 55.215 63.190 26.380 
828 74.486 38.764 0.43818 58.282 14.110 10.429 
829 72.293 67.732 84.511 72.393 47.239 58.896 
830 71.349 55.278 23.750 60.736 23.926 16.564 
831 10.998 19.916 82.596 4.2945 14.724 39.877 
832 1.5798 33.328 79.698 6.1350 17.178 38.650 
833 61.955 8.9911 90.766 35.583 18.405 53.374 
834 44.195 40.277 31.491 24.540 12.883 11.043 
835 59.060 79.425 21.320 62.577 46.012 23.313 
836 9.8214 2.9467 42.842 2.4540 3.0675 9.2025 
END_DATA
CAL    

DESCRIPTOR "Argyll Device Calibration State"
ORIGINATOR "Argyll dispread"
CREATED "Mon Dec  5 18:54:18 2011"
KEYWORD "DEVICE_CLASS"
DEVICE_CLASS "DISPLAY"
KEYWORD "COLOR_REP"
COLOR_REP "RGB"

KEYWORD "RGB_I"
NUMBER_OF_FIELDS 4
BEGIN_DATA_FORMAT
RGB_I RGB_R RGB_G RGB_B 
END_DATA_FORMAT

NUMBER_OF_SETS 256
BEGIN_DATA
0.0000 0.0000 0.0000 0.0000 
3.9216e-03 3.9216e-03 3.9216e-03 3.9216e-03 
7.8431e-03 7.8431e-03 7.8431e-03 7.8431e-03 
0.011765 0.011765 0.011765 0.011765 
0.015686 0.015686 0.015686 0.015686 
0.019608 0.019608 0.019608 0.019608 
0.023529 0.023529 0.023529 0.023529 
0.027451 0.027451 0.027451 0.027451 
0.031373 0.031373 0.031373 0.031373 
0.035294 0.035294 0.035294 0.035294 
0.039216 0.039216 0.039216 0.039216 
0.043137 0.043137 0.043137 0.043137 
0.047059 0.047059 0.047059 0.047059 
0.050980 0.050980 0.050980 0.050980 
0.054902 0.054902 0.054902 0.054902 
0.058824 0.058824 0.058824 0.058824 
0.062745 0.062745 0.062745 0.062745 
0.066667 0.066667 0.066667 0.066667 
0.070588 0.070588 0.070588 0.070588 
0.074510 0.074510 0.074510 0.074510 
0.078431 0.078431 0.078431 0.078431 
0.082353 0.082353 0.082353 0.082353 
0.086275 0.086275 0.086275 0.086275 
0.090196 0.090196 0.090196 0.090196 
0.094118 0.094118 0.094118 0.094118 
0.098039 0.098039 0.098039 0.098039 
0.10196 0.10196 0.10196 0.10196 
0.10588 0.10588 0.10588 0.10588 
0.10980 0.10980 0.10980 0.10980 
0.11373 0.11373 0.11373 0.11373 
0.11765 0.11765 0.11765 0.11765 
0.12157 0.12157 0.12157 0.12157 
0.12549 0.12549 0.12549 0.12549 
0.12941 0.12941 0.12941 0.12941 
0.13333 0.13333 0.13333 0.13333 
0.13725 0.13725 0.13725 0.13725 
0.14118 0.14118 0.14118 0.14118 
0.14510 0.14510 0.14510 0.14510 
0.14902 0.14902 0.14902 0.14902 
0.15294 0.15294 0.15294 0.15294 
0.15686 0.15686 0.15686 0.15686 
0.16078 0.16078 0.16078 0.16078 
0.16471 0.16471 0.16471 0.16471 
0.16863 0.16863 0.16863 0.16863 
0.17255 0.17255 0.17255 0.17255 
0.17647 0.17647 0.17647 0.17647 
0.18039 0.18039 0.18039 0.18039 
0.18431 0.18431 0.18431 0.18431 
0.18824 0.18824 0.18824 0.18824 
0.19216 0.19216 0.19216 0.19216 
0.19608 0.19608 0.19608 0.19608 
0.20000 0.20000 0.20000 0.20000 
0.20392 0.20392 0.20392 0.20392 
0.20784 0.20784 0.20784 0.20784 
0.21176 0.21176 0.21176 0.21176 
0.21569 0.21569 0.21569 0.21569 
0.21961 0.21961 0.21961 0.21961 
0.22353 0.22353 0.22353 0.22353 
0.22745 0.22745 0.22745 0.22745 
0.23137 0.23137 0.23137 0.23137 
0.23529 0.23529 0.23529 0.23529 
0.23922 0.23922 0.23922 0.23922 
0.24314 0.24314 0.24314 0.24314 
0.24706 0.24706 0.24706 0.24706 
0.25098 0.25098 0.25098 0.25098 
0.25490 0.25490 0.25490 0.25490 
0.25882 0.25882 0.25882 0.25882 
0.26275 0.26275 0.26275 0.26275 
0.26667 0.26667 0.26667 0.26667 
0.27059 0.27059 0.27059 0.27059 
0.27451 0.27451 0.27451 0.27451 
0.27843 0.27843 0.27843 0.27843 
0.28235 0.28235 0.28235 0.28235 
0.28627 0.28627 0.28627 0.28627 
0.29020 0.29020 0.29020 0.29020 
0.29412 0.29412 0.29412 0.29412 
0.29804 0.29804 0.29804 0.29804 
0.30196 0.30196 0.30196 0.30196 
0.30588 0.30588 0.30588 0.30588 
0.30980 0.30980 0.30980 0.30980 
0.31373 0.31373 0.31373 0.31373 
0.31765 0.31765 0.31765 0.31765 
0.32157 0.32157 0.32157 0.32157 
0.32549 0.32549 0.32549 0.32549 
0.32941 0.32941 0.32941 0.32941 
0.33333 0.33333 0.33333 0.33333 
0.33725 0.33725 0.33725 0.33725 
0.34118 0.34118 0.34118 0.34118 
0.34510 0.34510 0.34510 0.34510 
0.34902 0.34902 0.34902 0.34902 
0.35294 0.35294 0.35294 0.35294 
0.35686 0.35686 0.35686 0.35686 
0.36078 0.36078 0.36078 0.36078 
0.36471 0.36471 0.36471 0.36471 
0.36863 0.36863 0.36863 0.36863 
0.37255 0.37255 0.37255 0.37255 
0.37647 0.37647 0.37647 0.37647 
0.38039 0.38039 0.38039 0.38039 
0.38431 0.38431 0.38431 0.38431 
0.38824 0.38824 0.38824 0.38824 
0.39216 0.39216 0.39216 0.39216 
0.39608 0.39608 0.39608 0.39608 
0.40000 0.40000 0.40000 0.40000 
0.40392 0.40392 0.40392 0.40392 
0.40784 0.40784 0.40784 0.40784 
0.41176 0.41176 0.41176 0.41176 
0.41569 0.41569 0.41569 0.41569 
0.41961 0.41961 0.41961 0.41961 
0.42353 0.42353 0.42353 0.42353 
0.42745 0.42745 0.42745 0.42745 
0.43137 0.43137 0.43137 0.43137 
0.43529 0.43529 0.43529 0.43529 
0.43922 0.43922 0.43922 0.43922 
0.44314 0.44314 0.44314 0.44314 
0.44706 0.44706 0.44706 0.44706 
0.45098 0.45098 0.45098 0.45098 
0.45490 0.45490 0.45490 0.45490 
0.45882 0.45882 0.45882 0.45882 
0.46275 0.46275 0.46275 0.46275 
0.46667 0.46667 0.46667 0.46667 
0.47059 0.47059 0.47059 0.47059 
0.47451 0.47451 0.47451 0.47451 
0.47843 0.47843 0.47843 0.47843 
0.48235 0.48235 0.48235 0.48235 
0.48627 0.48627 0.48627 0.48627 
0.49020 0.49020 0.49020 0.49020 
0.49412 0.49412 0.49412 0.49412 
0.49804 0.49804 0.49804 0.49804 
0.50196 0.50196 0.50196 0.50196 
0.50588 0.50588 0.50588 0.50588 
0.50980 0.50980 0.50980 0.50980 
0.51373 0.51373 0.51373 0.51373 
0.51765 0.51765 0.51765 0.51765 
0.52157 0.52157 0.52157 0.52157 
0.52549 0.52549 0.52549 0.52549 
0.52941 0.52941 0.52941 0.52941 
0.53333 0.53333 0.53333 0.53333 
0.53725 0.53725 0.53725 0.53725 
0.54118 0.54118 0.54118 0.54118 
0.54510 0.54510 0.54510 0.54510 
0.54902 0.54902 0.54902 0.54902 
0.55294 0.55294 0.55294 0.55294 
0.55686 0.55686 0.55686 0.55686 
0.56078 0.56078 0.56078 0.56078 
0.56471 0.56471 0.56471 0.56471 
0.56863 0.56863 0.56863 0.56863 
0.57255 0.57255 0.57255 0.57255 
0.57647 0.57647 0.57647 0.57647 
0.58039 0.58039 0.58039 0.58039 
0.58431 0.58431 0.58431 0.58431 
0.58824 0.58824 0.58824 0.58824 
0.59216 0.59216 0.59216 0.59216 
0.59608 0.59608 0.59608 0.59608 
0.60000 0.60000 0.60000 0.60000 
0.60392 0.60392 0.60392 0.60392 
0.60784 0.60784 0.60784 0.60784 
0.61176 0.61176 0.61176 0.61176 
0.61569 0.61569 0.61569 0.61569 
0.61961 0.61961 0.61961 0.61961 
0.62353 0.62353 0.62353 0.62353 
0.62745 0.62745 0.62745 0.62745 
0.63137 0.63137 0.63137 0.63137 
0.63529 0.63529 0.63529 0.63529 
0.63922 0.63922 0.63922 0.63922 
0.64314 0.64314 0.64314 0.64314 
0.64706 0.64706 0.64706 0.64706 
0.65098 0.65098 0.65098 0.65098 
0.65490 0.65490 0.65490 0.65490 
0.65882 0.65882 0.65882 0.65882 
0.66275 0.66275 0.66275 0.66275 
0.66667 0.66667 0.66667 0.66667 
0.67059 0.67059 0.67059 0.67059 
0.67451 0.67451 0.67451 0.67451 
0.67843 0.67843 0.67843 0.67843 
0.68235 0.68235 0.68235 0.68235 
0.68627 0.68627 0.68627 0.68627 
0.69020 0.69020 0.69020 0.69020 
0.69412 0.69412 0.69412 0.69412 
0.69804 0.69804 0.69804 0.69804 
0.70196 0.70196 0.70196 0.70196 
0.70588 0.70588 0.70588 0.70588 
0.70980 0.70980 0.70980 0.70980 
0.71373 0.71373 0.71373 0.71373 
0.71765 0.71765 0.71765 0.71765 
0.72157 0.72157 0.72157 0.72157 
0.72549 0.72549 0.72549 0.72549 
0.72941 0.72941 0.72941 0.72941 
0.73333 0.73333 0.73333 0.73333 
0.73725 0.73725 0.73725 0.73725 
0.74118 0.74118 0.74118 0.74118 
0.74510 0.74510 0.74510 0.74510 
0.74902 0.74902 0.74902 0.74902 
0.75294 0.75294 0.75294 0.75294 
0.75686 0.75686 0.75686 0.75686 
0.76078 0.76078 0.76078 0.76078 
0.76471 0.76471 0.76471 0.76471 
0.76863 0.76863 0.76863 0.76863 
0.77255 0.77255 0.77255 0.77255 
0.77647 0.77647 0.77647 0.77647 
0.78039 0.78039 0.78039 0.78039 
0.78431 0.78431 0.78431 0.78431 
0.78824 0.78824 0.78824 0.78824 
0.79216 0.79216 0.79216 0.79216 
0.79608 0.79608 0.79608 0.79608 
0.80000 0.80000 0.80000 0.80000 
0.80392 0.80392 0.80392 0.80392 
0.80784 0.80784 0.80784 0.80784 
0.81176 0.81176 0.81176 0.81176 
0.81569 0.81569 0.81569 0.81569 
0.81961 0.81961 0.81961 0.81961 
0.82353 0.82353 0.82353 0.82353 
0.82745 0.82745 0.82745 0.82745 
0.83137 0.83137 0.83137 0.83137 
0.83529 0.83529 0.83529 0.83529 
0.83922 0.83922 0.83922 0.83922 
0.84314 0.84314 0.84314 0.84314 
0.84706 0.84706 0.84706 0.84706 
0.85098 0.85098 0.85098 0.85098 
0.85490 0.85490 0.85490 0.85490 
0.85882 0.85882 0.85882 0.85882 
0.86275 0.86275 0.86275 0.86275 
0.86667 0.86667 0.86667 0.86667 
0.87059 0.87059 0.87059 0.87059 
0.87451 0.87451 0.87451 0.87451 
0.87843 0.87843 0.87843 0.87843 
0.88235 0.88235 0.88235 0.88235 
0.88627 0.88627 0.88627 0.88627 
0.89020 0.89020 0.89020 0.89020 
0.89412 0.89412 0.89412 0.89412 
0.89804 0.89804 0.89804 0.89804 
0.90196 0.90196 0.90196 0.90196 
0.90588 0.90588 0.90588 0.90588 
0.90980 0.90980 0.90980 0.90980 
0.91373 0.91373 0.91373 0.91373 
0.91765 0.91765 0.91765 0.91765 
0.92157 0.92157 0.92157 0.92157 
0.92549 0.92549 0.92549 0.92549 
0.92941 0.92941 0.92941 0.92941 
0.93333 0.93333 0.93333 0.93333 
0.93725 0.93725 0.93725 0.93725 
0.94118 0.94118 0.94118 0.94118 
0.94510 0.94510 0.94510 0.94510 
0.94902 0.94902 0.94902 0.94902 
0.95294 0.95294 0.95294 0.95294 
0.95686 0.95686 0.95686 0.95686 
0.96078 0.96078 0.96078 0.96078 
0.96471 0.96471 0.96471 0.96471 
0.96863 0.96863 0.96863 0.96863 
0.97255 0.97255 0.97255 0.97255 
0.97647 0.97647 0.97647 0.97647 
0.98039 0.98039 0.98039 0.98039 
0.98431 0.98431 0.98431 0.98431 
0.98824 0.98824 0.98824 0.98824 
0.99216 0.99216 0.99216 0.99216 
0.99608 0.99608 0.99608 0.99608 
1.0000 1.0000 1.0000 1.0000 
END_DATA
