CTI3   

DESCRIPTOR "Argyll Calibration Target chart information 3"
ORIGINATOR "Argyll dispread"
CREATED "Tue Jan 10 14:28:52 2012"
KEYWORD "DEVICE_CLASS"
DEVICE_CLASS "DISPLAY"
KEYWORD "COLOR_REP"
COLOR_REP "RGB_XYZ"
KEYWORD "TARGET_INSTRUMENT"
TARGET_INSTRUMENT "Hughski ColorHug"
KEYWORD "INSTRUMENT_TYPE_SPECTRAL"
INSTRUMENT_TYPE_SPECTRAL "NO"
KEYWORD "LUMINANCE_XYZ_CDM2"
LUMINANCE_XYZ_CDM2 "150.166473 136.083618 153.918732"
KEYWORD "NORMALIZED_TO_Y_100"
NORMALIZED_TO_Y_100 "YES"

NUMBER_OF_FIELDS 7
BEGIN_DATA_FORMAT
SAMPLE_ID RGB_R RGB_G RGB_B XYZ_X XYZ_Y XYZ_Z 
END_DATA_FORMAT

NUMBER_OF_SETS 836
BEGIN_DATA
1 100.00 100.00 100.00 110.35 100.00 113.11 
2 100.00 100.00 100.00 110.29 99.860 114.08 
3 100.00 100.00 100.00 110.07 100.17 113.94 
4 100.00 100.00 100.00 110.01 100.03 114.91 
5 33.330 32.622 30.968 9.5902 8.7331 9.7757 
6 100.00 0.0000 100.00 89.880 42.148 109.88 
7 100.00 100.00 0.0000 82.382 89.348 6.4959 
8 0.0000 100.00 100.00 48.722 68.772 117.56 
9 0.0000 100.00 0.0000 20.689 57.760 7.6516 
10 0.0000 0.0000 100.00 28.435 10.657 110.93 
11 100.00 0.0000 0.0000 63.088 31.624 4.8158e+04 
12 0.0000 0.0000 0.0000 0.43485 0.055806 0.76765 
13 0.0000 52.455 100.00 32.892 24.764 110.53 
14 100.00 0.0000 50.300 69.257 34.566 22.999 
15 100.00 54.739 100.00 95.365 57.735 109.29 
16 100.00 52.128 0.0000 67.637 45.140 1.1419 
17 0.0000 0.0000 46.181 5.3871 2.0184 19.840 
18 0.0000 51.141 0.0000 5.0127 13.301 1.7384 
19 0.0000 100.00 51.348 27.228 59.937 32.473 
20 100.00 100.00 52.037 89.881 91.506 31.150 
21 49.216 0.0000 0.0000 12.923 6.6602 4.8158e+04 
22 56.159 100.00 0.0000 37.245 66.016 7.5996 
23 49.226 100.00 100.00 60.962 75.278 116.71 
24 44.487 0.0000 100.00 37.941 15.409 110.74 
25 100.00 44.498 52.029 72.489 43.591 27.611 
26 48.926 48.544 100.00 44.627 28.574 112.25 
27 51.368 100.00 47.250 39.682 66.592 27.964 
28 49.893 0.0000 49.033 19.088 8.9211 22.887 
29 53.109 51.372 0.0000 20.047 20.561 2.5617 
30 0.0000 58.587 53.943 13.278 20.515 29.415 
31 100.00 28.065 100.00 91.815 45.972 108.12 
32 0.0000 0.0000 72.874 14.046 5.2353 54.229 
33 0.0000 26.758 100.00 29.470 13.499 111.69 
34 0.0000 25.426 0.0000 1.3153 3.3496 0.40855 
35 72.508 0.0000 100.00 57.790 25.755 108.84 
36 100.00 27.395 0.0000 64.684 35.482 4.8158e+04 
37 74.470 100.00 100.00 79.844 84.283 114.02 
38 100.00 0.0000 25.728 64.988 32.757 4.5901 
39 73.862 0.0000 0.0000 31.871 16.024 0.41730 
40 100.00 100.00 25.402 84.840 90.815 10.457 
41 0.0000 75.751 100.00 39.036 42.137 112.28 
42 0.0000 75.172 0.0000 11.128 30.944 4.2162 
43 0.0000 100.00 25.864 22.124 59.107 12.756 
44 100.00 0.0000 74.801 77.325 37.038 58.823 
45 0.0000 100.00 75.421 35.703 63.876 66.467 
46 24.577 0.0000 0.0000 3.1076 1.6712 1.0736 
47 26.321 100.00 0.0000 23.858 59.571 7.7491 
48 100.00 75.835 0.0000 74.216 62.568 3.6611 
49 100.00 100.00 77.061 99.038 94.458 69.131 
50 71.263 100.00 0.0000 50.103 71.857 7.9085 
51 0.0000 0.0000 15.614 0.65377 0.42391 1.3897 
52 0.0000 30.049 70.936 14.834 9.1206 51.772 
53 100.00 77.691 100.00 101.36 75.099 113.72 
54 24.486 100.00 100.00 50.895 69.511 117.60 
55 100.00 62.784 31.909 72.171 53.191 11.381 
56 29.552 0.0000 100.00 32.101 12.663 110.82 
57 32.980 70.921 100.00 42.656 39.870 113.84 
58 0.0000 27.681 40.241 5.1158 5.1535 14.499 
59 67.901 71.021 100.00 63.156 49.960 112.84 
60 28.154 100.00 67.829 35.971 63.724 53.282 
61 71.637 100.00 70.001 62.595 77.287 56.139 
62 58.822 58.763 53.586 32.321 30.428 28.797 
63 33.466 30.480 0.0000 7.1897 7.1857 0.56215 
64 100.00 73.795 71.277 86.952 66.275 54.634 
65 68.394 29.692 0.0000 28.592 17.797 0.85412 
66 70.399 0.0000 29.039 30.510 15.477 7.1675 
67 28.078 0.0000 26.956 5.2232 2.4911 6.3645 
68 28.532 72.339 0.0000 13.978 30.476 3.9646 
69 100.00 30.941 26.496 66.835 37.392 5.0168 
70 34.597 0.0000 73.611 20.042 8.2096 55.754 
71 71.573 0.0000 72.408 43.090 20.096 53.219 
72 0.0000 71.029 29.412 11.805 28.135 11.051 
73 68.386 75.008 0.0000 37.470 44.460 3.6261 
74 68.088 27.309 100.00 55.161 27.272 110.19 
75 100.00 26.457 73.749 78.326 39.930 56.035 
76 74.344 100.00 27.392 54.395 74.096 13.714 
77 27.558 100.00 28.197 25.880 59.841 14.266 
78 31.196 27.465 100.00 33.292 16.194 109.38 
79 0.0000 75.521 72.824 24.771 36.533 57.428 
80 0.0000 50.930 25.553 6.3834 13.828 7.3420 
81 32.060 33.584 64.033 17.222 11.610 41.031 
82 81.666 55.380 0.0000 45.558 35.736 1.1394 
83 68.257 32.751 58.286 36.694 21.820 33.104 
84 0.0000 55.248 81.585 23.954 22.181 73.169 
85 73.781 52.099 100.00 63.953 39.675 111.76 
86 100.00 50.537 82.952 86.538 51.108 75.193 
87 23.550 0.0000 50.439 9.0250 3.8344 24.256 
88 31.335 62.746 31.114 14.455 23.847 11.345 
89 100.00 18.310 49.418 69.851 35.991 22.041 
90 26.498 48.404 0.0000 7.6177 13.416 2.0676 
91 47.910 100.00 85.744 52.428 71.880 84.167 
92 71.829 47.313 31.811 35.890 27.333 9.6967 
93 31.304 64.132 69.316 24.581 28.820 50.588 
94 80.403 0.0000 54.321 45.125 22.419 27.654 
95 18.455 50.036 100.00 33.758 24.195 111.59 
96 50.653 100.00 16.345 34.733 65.310 9.3683 
97 80.121 100.00 52.261 64.693 79.290 33.398 
98 0.0000 22.540 19.289 2.0291 2.7721 4.1459 
99 100.00 75.273 46.886 78.951 63.702 25.912 
100 0.0000 78.618 56.625 20.104 36.900 35.154 
101 51.137 80.627 100.00 54.395 53.036 114.40 
102 48.446 0.0000 17.864 13.453 6.8050 3.1512 
103 100.00 50.023 21.211 68.847 44.758 4.6708 
104 50.115 20.118 0.0000 14.203 8.9194 4.8159e+04 
105 58.099 72.426 33.158 30.975 38.548 12.757 
106 19.364 100.00 50.197 28.067 60.780 30.934 
107 50.683 19.177 100.00 41.798 19.195 108.66 
108 53.370 0.0000 81.576 33.099 14.668 69.765 
109 47.768 76.245 0.0000 23.184 38.173 2.9666 
110 0.0000 18.927 55.503 8.3197 4.8516 29.072 
111 0.0000 13.277 0.0000 0.53196 1.2857 0.018165 
112 72.862 72.473 75.625 55.737 49.754 63.207 
113 100.00 13.904 0.0000 62.875 32.617 4.8158e+04 
114 86.349 0.0000 100.00 72.794 33.286 110.39 
115 100.00 41.941 100.00 93.510 50.598 111.23 
116 100.00 81.785 16.464 76.939 68.676 6.5760 
117 0.0000 44.063 52.596 10.361 11.947 27.999 
118 0.0000 0.0000 58.917 8.9070 3.3146 34.285 
119 59.250 24.551 29.789 22.317 13.394 7.2836 
120 82.730 82.874 100.00 81.925 69.403 111.90 
121 80.039 0.0000 12.618 38.458 19.743 0.50801 
122 60.957 47.729 77.817 41.052 27.830 65.749 
123 100.00 0.0000 38.618 66.670 33.060 12.914 
124 0.0000 40.090 100.00 31.350 18.545 111.87 
125 0.0000 15.283 82.322 19.063 8.0179 72.802 
126 17.592 81.726 100.00 42.223 48.030 115.24 
127 100.00 14.130 100.00 91.092 42.906 110.08 
128 15.261 100.00 82.059 39.498 64.319 79.605 
129 47.770 79.418 60.389 33.747 44.343 39.654 
130 18.768 16.429 0.0000 2.4274 2.1981 0.88667 
131 55.634 100.00 65.763 48.272 70.371 51.452 
132 100.00 100.00 38.541 86.179 90.471 20.110 
133 17.421 0.0000 83.497 20.149 7.8172 74.483 
134 17.237 16.758 100.00 29.899 12.194 111.51 
135 0.0000 15.067 30.039 2.4623 1.6870 8.2374 
136 0.0000 0.0000 86.505 20.961 8.0091 81.271 
137 75.736 72.799 50.020 49.623 47.654 26.800 
138 100.00 83.323 85.529 96.256 78.153 80.226 
139 100.00 100.00 64.894 93.872 93.948 46.589 
140 81.980 84.914 0.0000 54.616 60.996 3.8304 
141 0.0000 63.757 15.490 8.3030 21.785 4.8981 
142 49.514 66.135 100.00 48.235 39.797 111.96 
143 100.00 0.0000 61.862 71.036 34.498 37.697 
144 24.308 45.410 49.831 12.288 13.730 24.818 
145 15.963 0.0000 17.047 1.8042 1.0432 2.5710 
146 87.497 100.00 100.00 93.135 89.038 118.42 
147 52.099 25.003 75.752 30.367 15.655 59.987 
148 14.909 81.162 0.0000 13.691 36.143 5.0564 
149 0.0000 34.792 14.626 2.7230 6.1078 2.9149 
150 48.390 45.075 22.552 17.089 16.617 5.4572 
151 83.545 65.965 100.00 77.122 54.429 109.35 
152 16.226 62.345 0.0000 8.6395 21.071 2.6150 
153 63.222 0.0000 14.914 23.020 11.696 1.9910 
154 80.449 13.446 0.0000 38.739 20.251 0.15394 
155 83.917 41.562 0.0000 45.535 29.832 1.1280 
156 100.00 60.448 46.300 75.093 52.842 22.507 
157 15.584 0.0000 34.795 4.0152 1.9521 10.436 
158 17.144 65.121 100.00 36.989 33.681 112.40 
159 83.602 55.334 62.667 57.080 40.746 40.983 
160 0.0000 82.190 14.220 13.915 37.872 6.6314 
161 25.132 74.856 50.616 19.902 34.000 28.099 
162 0.0000 13.769 100.00 28.500 11.477 110.43 
163 87.181 0.0000 0.0000 46.813 23.876 4.8158e+04 
164 0.0000 100.00 39.190 24.335 60.016 20.621 
165 78.047 65.914 19.865 44.653 41.608 4.8685 
166 100.00 63.961 15.865 70.741 53.666 3.4297 
167 100.00 45.955 36.032 69.314 43.622 12.313 
168 15.926 100.00 16.890 22.277 59.116 10.077 
169 41.459 100.00 0.0000 29.449 62.219 7.7803 
170 48.707 37.288 48.139 20.539 15.271 23.249 
171 83.381 100.00 13.285 62.468 78.182 8.9023 
172 78.129 25.303 75.621 52.452 26.420 60.943 
173 12.396 0.0000 0.0000 0.96385 0.66115 0.30935 
174 37.607 48.336 83.346 30.436 22.168 76.380 
175 35.588 15.356 0.0000 7.0866 4.5949 0.35872 
176 61.245 100.00 100.00 68.382 78.479 114.31 
177 100.00 67.290 87.195 92.206 64.372 82.121 
178 0.0000 0.0000 30.615 2.3975 0.86702 8.7371 
179 35.187 81.789 83.323 37.945 47.843 77.348 
180 39.525 80.194 22.879 21.707 39.848 9.2982 
181 50.634 34.593 0.0000 15.737 12.637 1.0217 
182 14.175 100.00 63.146 31.244 61.429 46.709 
183 83.493 17.728 34.574 45.394 23.408 11.146 
184 23.463 22.014 79.943 20.149 9.4187 67.358 
185 18.066 31.847 0.0000 3.3078 5.4919 0.52756 
186 87.201 100.00 81.361 84.198 88.056 73.933 
187 0.0000 100.00 87.950 41.715 66.589 88.423 
188 34.476 17.888 46.220 11.729 6.3203 20.511 
189 18.277 0.0000 67.390 13.109 5.2248 45.593 
190 100.00 87.972 0.0000 78.297 75.618 4.8403 
191 82.925 34.850 100.00 70.328 36.852 110.49 
192 0.0000 88.016 100.00 43.706 54.790 115.35 
193 36.104 85.655 100.00 48.730 55.062 115.13 
194 60.981 0.0000 0.0000 20.690 10.728 0.35486 
195 51.466 61.826 78.106 37.415 33.089 66.825 
196 78.427 31.983 22.175 39.375 23.667 4.1758 
197 66.017 44.321 0.0000 28.050 22.005 1.0973 
198 83.941 0.0000 84.177 61.371 29.045 73.594 
199 20.158 46.612 23.269 6.9358 12.802 5.2044 
200 0.0000 100.00 62.618 30.439 62.137 44.675 
201 33.832 0.0000 13.933 6.2152 3.3423 2.1472 
202 100.00 17.286 16.322 63.748 33.409 1.7875 
203 0.0000 42.204 83.926 22.321 16.092 76.211 
204 0.0000 87.774 0.0000 15.393 43.271 5.7908 
205 64.988 0.0000 59.017 32.547 15.485 34.115 
206 14.677 0.0000 100.00 28.497 10.797 109.95 
207 88.934 82.673 35.021 64.835 63.569 14.508 
208 0.0000 63.778 100.00 35.338 32.186 110.95 
209 83.429 17.674 100.00 69.597 32.887 107.69 
210 30.899 100.00 85.668 44.847 67.770 84.493 
211 83.680 0.0000 41.016 46.141 23.241 14.633 
212 100.00 63.515 0.0000 70.332 52.659 1.4593 
213 85.074 69.987 0.0000 52.676 48.276 2.9390 
214 20.801 45.524 69.018 18.114 16.024 49.702 
215 21.382 82.482 73.017 29.265 43.735 59.363 
216 100.00 15.128 64.249 74.085 36.710 40.223 
217 36.522 0.0000 58.427 15.337 6.8052 32.777 
218 22.466 81.296 33.007 17.800 38.644 14.267 
219 62.531 87.152 0.0000 37.073 53.710 5.2523 
220 84.120 85.397 67.886 68.689 66.882 49.733 
221 18.870 27.336 45.389 7.9764 6.2664 19.477 
222 66.439 100.00 14.444 45.976 70.745 8.4546 
223 41.636 22.147 19.003 10.603 7.2727 3.4027 
224 61.271 100.00 81.940 58.821 74.741 78.633 
225 86.013 100.00 0.0000 64.767 79.881 7.4645 
226 37.570 0.0000 0.0000 7.3320 4.0122 4.8158e+04 
227 100.00 16.132 84.102 82.156 39.862 76.523 
228 0.0000 100.00 13.619 21.278 57.364 9.5410 
229 38.905 100.00 56.471 35.866 63.656 38.354 
230 100.00 15.382 34.563 66.578 33.652 10.816 
231 36.656 14.908 100.00 34.588 14.321 110.25 
232 0.0000 62.593 66.608 18.422 24.257 46.512 
233 66.347 12.528 100.00 51.796 23.461 107.79 
234 100.00 43.375 69.233 77.317 45.274 48.636 
235 100.00 56.360 61.236 76.678 50.314 38.704 
236 0.0000 86.194 44.955 19.591 42.899 23.746 
237 64.527 87.262 100.00 65.260 64.269 116.28 
238 34.411 0.0000 42.471 9.9834 4.7362 16.488 
239 80.230 59.707 85.120 63.295 44.297 80.918 
240 20.625 19.056 14.791 3.2677 2.5801 3.1483 
241 15.341 34.221 100.00 30.782 16.169 111.62 
242 36.777 0.0000 87.905 28.448 11.109 85.971 
243 34.598 56.247 100.00 39.606 28.982 112.94 
244 20.860 67.629 17.418 11.511 25.366 5.6987 
245 44.958 60.843 18.054 18.607 24.467 5.7961 
246 37.421 60.193 0.0000 13.914 22.121 2.7736 
247 84.011 33.849 42.612 49.203 29.316 15.742 
248 17.241 60.339 37.743 11.284 20.895 14.572 
249 50.650 17.261 53.278 21.301 10.971 27.428 
250 45.505 48.926 65.152 26.068 21.651 43.996 
251 44.567 84.081 39.649 28.344 46.458 19.122 
252 100.00 86.339 72.054 91.096 79.004 58.638 
253 68.140 61.135 0.0000 32.927 32.305 2.8820 
254 17.930 66.986 81.403 27.616 31.041 74.272 
255 39.242 60.215 48.926 20.361 24.890 25.497 
256 20.099 18.770 62.967 12.551 6.4914 39.653 
257 34.553 100.00 14.582 26.869 60.012 9.5722 
258 87.345 0.0000 66.694 58.677 27.932 44.780 
259 0.0000 43.714 39.842 7.2467 10.977 15.048 
260 100.00 37.705 13.955 66.869 38.943 1.4432 
261 31.265 86.993 0.0000 20.017 44.578 5.0362 
262 51.402 82.661 81.338 45.243 51.906 73.576 
263 100.00 100.00 12.984 84.120 90.032 5.7663 
264 0.0000 37.859 0.0000 2.6629 7.1092 0.56724 
265 62.092 58.215 100.00 55.145 38.940 111.19 
266 86.186 100.00 64.100 76.009 84.384 47.662 
267 100.00 35.251 85.898 85.062 45.248 79.834 
268 63.182 89.992 41.974 42.748 58.738 22.367 
269 13.504 100.00 0.0000 21.218 58.365 7.1933 
270 100.00 0.0000 13.228 63.742 32.048 0.83459 
271 63.881 40.826 100.00 53.313 30.171 111.45 
272 69.387 84.838 20.792 42.594 53.716 8.6305 
273 0.0000 70.279 45.136 14.230 27.591 22.385 
274 79.094 64.754 40.908 48.879 41.427 18.298 
275 62.385 54.099 17.396 27.820 25.990 4.0603 
276 64.408 14.621 0.0000 23.891 12.949 0.20251 
277 70.028 15.606 44.651 33.751 17.406 18.643 
278 0.0000 63.544 0.0000 7.6786 21.090 2.7821 
279 83.475 47.274 20.502 46.975 33.000 3.3846 
280 55.866 0.0000 32.671 19.702 10.097 8.8489 
281 58.007 0.0000 100.00 46.266 19.812 110.11 
282 100.00 0.0000 87.698 84.145 39.723 83.290 
283 0.0000 13.792 67.215 11.900 5.1464 45.864 
284 84.123 17.001 58.549 51.593 26.079 33.974 
285 59.579 32.873 15.966 21.887 15.159 3.6686 
286 10.410 32.998 28.659 4.3389 6.0519 7.9378 
287 17.231 40.031 85.650 24.153 15.724 81.380 
288 37.568 41.561 10.108 10.652 12.226 2.2114 
289 0.0000 69.015 85.092 28.928 32.109 81.328 
290 14.442 100.00 36.187 24.143 58.697 18.796 
291 100.00 40.549 0.0000 66.748 39.805 0.071616 
292 82.143 45.435 78.429 60.805 36.946 64.592 
293 52.674 0.0000 67.300 26.528 12.080 45.194 
294 0.0000 87.868 66.793 26.481 47.765 48.667 
295 86.530 100.00 40.524 69.904 82.723 19.808 
296 71.777 85.586 67.232 55.737 60.492 50.650 
297 43.216 100.00 31.671 32.376 63.691 16.059 
298 39.245 32.908 85.845 29.799 17.150 79.482 
299 0.0000 45.662 67.543 15.565 14.688 47.444 
300 12.161 100.00 100.00 48.690 68.362 117.81 
301 67.049 0.0000 85.516 45.189 20.244 79.190 
302 100.00 89.041 100.00 106.48 86.178 115.87 
303 20.246 60.698 56.526 16.638 22.503 34.661 
304 52.177 55.457 40.416 24.134 24.233 17.251 
305 72.617 87.018 83.932 64.704 64.407 80.158 
306 40.512 16.723 66.475 20.473 9.6470 45.121 
307 68.507 49.232 50.605 37.642 28.216 25.598 
308 65.622 100.00 54.525 51.614 71.940 35.791 
309 54.115 37.240 66.394 29.871 18.663 45.948 
310 100.00 76.138 31.267 77.110 63.631 12.190 
311 54.728 65.623 0.0000 24.519 30.535 2.8525 
312 63.126 12.526 64.370 33.143 15.990 40.758 
313 72.827 18.080 23.704 32.904 17.725 4.5037 
314 23.268 15.278 34.947 5.7271 3.5867 10.909 
315 87.648 68.954 59.645 65.246 52.916 36.636 
316 0.0000 85.595 85.198 34.418 49.058 81.690 
317 35.798 84.371 69.210 32.840 47.473 53.830 
318 36.062 47.494 35.919 13.558 16.010 12.646 
319 86.083 36.277 59.152 56.083 32.600 35.433 
320 58.210 100.00 30.361 41.165 67.879 15.461 
321 46.745 14.614 32.317 14.330 7.8169 9.4397 
322 81.573 73.869 86.954 70.479 57.196 86.018 
323 85.991 49.387 48.206 55.067 37.044 23.281 
324 28.062 87.906 19.654 19.805 45.110 9.1674 
325 68.992 17.993 85.124 47.491 22.624 78.229 
326 100.00 66.147 100.00 99.332 65.012 112.16 
327 33.358 64.806 84.517 32.801 31.762 79.933 
328 41.351 17.736 80.522 26.610 12.178 68.925 
329 100.00 100.00 88.719 105.11 97.310 90.111 
330 66.336 0.0000 44.320 29.834 14.622 18.381 
331 64.850 67.090 12.293 32.602 36.201 3.2707 
332 15.262 31.268 63.277 12.902 9.1799 39.753 
333 15.008 43.663 37.300 7.8051 11.312 13.864 
334 0.0000 57.895 38.078 9.7261 18.808 15.220 
335 66.599 58.458 67.871 43.050 34.997 48.773 
336 59.191 18.651 15.215 20.353 11.442 2.6380 
337 66.781 31.140 84.629 45.885 24.261 78.436 
338 88.033 85.158 52.140 68.488 66.725 32.230 
339 36.882 100.00 100.00 55.147 70.441 118.90 
340 26.102 33.094 17.006 5.8276 7.0986 3.5121 
341 56.309 36.861 35.862 22.892 16.670 12.282 
342 45.839 65.587 67.033 30.730 31.803 49.435 
343 83.709 81.172 16.406 56.031 57.580 5.5991 
344 0.0000 48.132 13.005 4.6673 11.973 2.5921 
345 87.176 50.021 100.00 78.953 46.986 109.03 
346 51.219 84.244 13.730 28.396 46.618 5.7920 
347 60.606 71.415 48.406 36.043 39.889 25.124 
348 0.0000 11.359 12.718 0.87270 0.79202 2.0118 
349 86.429 49.705 33.145 52.482 36.679 9.8714 
350 34.056 40.958 100.00 36.509 21.817 111.61 
351 100.00 30.557 59.628 73.503 39.608 35.963 
352 88.497 26.902 13.449 49.465 27.803 1.6044 
353 14.167 51.980 88.218 27.003 22.331 86.619 
354 13.784 12.983 49.370 6.9460 3.6443 22.992 
355 15.018 88.441 48.062 22.087 46.137 28.410 
356 87.790 25.769 89.215 70.333 34.802 87.901 
357 0.0000 33.206 55.865 9.7597 8.0198 31.328 
358 74.324 76.029 35.536 46.331 48.767 14.406 
359 65.863 57.223 42.324 34.825 30.695 18.475 
360 30.893 54.646 13.136 10.612 17.990 3.1990 
361 0.0000 34.360 28.321 3.7205 6.7184 6.7747 
362 15.443 77.087 85.116 31.782 40.998 79.920 
363 63.381 68.947 68.521 43.697 41.595 50.900 
364 69.733 27.566 42.917 33.262 19.712 16.480 
365 32.754 100.00 42.760 30.176 62.301 24.348 
366 47.096 29.481 34.829 16.018 11.083 11.592 
367 8.5451 71.948 62.695 20.090 31.436 43.696 
368 0.0000 86.048 29.300 16.820 42.116 13.266 
369 53.697 51.572 85.367 40.448 28.696 81.217 
370 17.608 56.690 12.515 7.9133 17.325 4.0958 
371 90.638 14.414 49.227 57.795 28.762 23.291 
372 63.248 63.640 89.550 52.034 40.252 91.588 
373 100.00 85.976 58.455 86.667 76.286 38.154 
374 9.8311 28.027 7.5567 2.2174 3.8712 1.6940 
375 89.831 64.313 69.506 69.437 51.644 49.839 
376 31.754 12.995 25.543 6.9967 4.2652 5.8614 
377 75.914 45.966 64.957 48.460 31.973 43.394 
378 7.5735 50.695 58.941 13.485 16.560 35.256 
379 100.00 69.835 58.912 80.593 61.094 36.856 
380 32.211 34.376 48.339 12.956 10.481 23.099 
381 13.901 12.159 73.555 15.634 6.5908 56.654 
382 87.071 9.0280 77.653 62.388 29.406 64.374 
383 23.272 85.409 84.290 36.246 48.470 82.581 
384 93.289 39.480 26.145 58.800 35.538 6.7311 
385 65.769 59.630 30.967 33.178 31.482 10.378 
386 100.00 32.265 41.803 69.825 38.543 16.120 
387 86.568 85.281 86.961 80.919 71.555 85.237 
388 52.577 86.830 30.016 31.887 49.786 13.839 
389 47.921 40.199 76.902 30.633 19.835 62.742 
390 22.360 86.619 61.580 26.533 46.324 42.461 
391 52.232 33.601 88.787 38.408 21.140 86.089 
392 0.0000 28.523 86.267 21.903 11.443 79.936 
393 43.497 67.879 39.551 22.113 31.038 16.226 
394 39.877 45.261 0.0000 11.961 14.215 1.6670 
395 86.940 12.430 24.699 47.967 24.715 4.6007 
396 28.363 55.339 90.398 32.075 25.954 92.338 
397 39.018 70.534 57.879 25.611 33.504 36.150 
398 12.833 28.519 78.828 18.570 10.104 66.363 
399 68.350 31.815 69.975 41.022 23.088 50.060 
400 56.520 26.226 41.626 22.574 13.931 15.733 
401 12.938 46.218 0.0000 4.7261 11.432 1.1395 
402 8.6938 60.179 26.117 8.5467 20.061 7.6412 
403 51.995 89.429 96.608 56.472 62.823 106.43 
404 46.905 47.746 48.909 21.674 20.024 23.739 
405 14.352 81.814 19.479 15.034 38.081 8.0625 
406 71.482 38.117 12.273 32.515 21.942 2.0683 
407 86.616 60.785 10.012 53.117 42.157 2.9689 
408 71.811 88.979 52.186 51.978 62.741 30.614 
409 43.213 100.00 72.083 43.589 68.004 60.783 
410 73.920 23.444 8.2853 32.719 18.908 0.30800 
411 40.629 85.534 53.423 29.785 47.564 32.303 
412 38.955 52.128 22.885 13.809 18.389 5.8940 
413 46.480 12.229 8.6707 11.652 6.4422 1.0567 
414 40.855 33.301 22.309 11.824 10.073 5.0372 
415 76.365 66.787 61.060 52.038 43.927 40.029 
416 7.5076 12.025 20.590 1.7131 1.1741 4.2734 
417 85.930 27.031 0.0000 45.612 25.839 0.84353 
418 100.00 87.757 44.060 82.966 76.392 23.790 
419 41.543 25.624 54.896 17.766 10.144 30.340 
420 59.533 76.669 91.789 54.494 49.934 97.716 
421 58.226 12.079 28.862 21.038 11.135 7.1017 
422 50.514 8.8602 88.281 35.191 15.517 83.859 
423 41.983 0.0000 31.301 11.654 5.5211 8.6573 
424 28.024 36.455 77.877 22.243 14.612 63.881 
425 12.718 41.027 11.129 4.1294 9.3266 1.6210 
426 26.194 75.573 88.088 35.415 40.992 87.183 
427 28.936 71.474 37.671 17.090 30.766 16.439 
428 90.497 74.770 26.512 63.161 56.630 9.2469 
429 17.514 75.984 41.507 16.546 33.833 20.006 
430 16.621 64.069 68.891 20.948 27.224 50.450 
431 12.420 21.661 36.669 4.4884 3.7787 11.907 
432 52.915 46.814 10.465 19.048 18.809 2.0257 
433 56.979 91.194 52.490 41.143 58.312 33.498 
434 25.140 52.299 42.419 12.481 16.650 19.518 
435 25.587 6.8296 13.004 3.5424 1.7270 1.8413 
436 55.018 14.818 41.328 20.733 10.657 16.259 
437 93.397 56.942 87.959 82.115 51.560 86.326 
438 28.374 12.057 85.683 24.005 10.001 79.520 
439 78.265 6.7088 92.468 60.017 27.796 92.222 
440 39.694 71.314 6.3658 18.105 31.587 3.4185 
441 73.259 45.059 87.294 55.382 34.046 82.313 
442 26.381 57.692 76.454 24.669 24.806 62.658 
443 66.587 33.629 31.299 29.348 19.210 9.5714 
444 88.523 74.434 46.718 63.730 56.484 24.216 
445 76.836 59.920 49.912 46.889 38.363 25.779 
446 33.152 90.418 31.148 23.765 49.885 14.408 
447 55.924 53.388 68.505 34.280 27.356 50.539 
448 77.248 91.798 41.448 56.173 66.954 22.921 
449 26.737 89.225 45.445 24.449 47.976 25.996 
450 87.642 100.00 25.942 68.743 80.523 13.397 
451 68.631 100.00 40.532 51.137 71.495 22.919 
452 14.485 50.449 49.078 11.240 15.701 23.840 
453 10.654 10.664 89.702 22.985 8.9599 88.264 
454 31.962 49.108 62.920 19.450 18.663 40.831 
455 8.6779 22.468 68.278 12.837 6.7584 47.376 
456 74.727 90.586 6.3447 49.199 63.119 4.4559 
457 0.0000 12.136 44.106 5.0788 2.9221 17.597 
458 43.350 78.123 73.610 35.497 44.085 58.878 
459 10.925 11.786 9.5801 1.3693 0.98739 1.8033 
460 15.591 37.386 50.832 9.4825 9.7940 25.035 
461 10.685 68.959 9.3113 9.6801 25.274 4.3305 
462 92.017 72.247 12.692 63.180 54.779 3.2910 
463 89.839 77.431 73.400 75.256 63.776 57.412 
464 47.450 74.511 18.753 23.614 36.407 6.5816 
465 50.097 90.816 69.461 42.371 58.809 54.134 
466 82.755 34.052 82.994 61.418 32.857 75.727 
467 46.786 72.919 85.794 41.833 41.761 83.769 
468 9.3304 90.457 73.518 30.660 51.307 61.654 
469 88.590 61.902 22.128 56.414 44.467 5.3909 
470 100.00 61.262 74.222 84.686 56.991 57.932 
471 86.777 8.8992 8.4672 46.783 24.146 4.8158e+04 
472 39.582 85.966 11.798 22.905 45.881 5.4878 
473 85.958 0.0000 24.986 46.723 23.546 4.6455 
474 80.299 22.552 47.163 44.380 23.728 20.843 
475 7.2180 45.128 76.547 19.365 16.491 61.535 
476 55.989 48.521 58.428 29.944 23.586 35.953 
477 50.728 10.774 73.284 28.338 12.883 55.842 
478 71.269 10.344 11.008 29.669 15.555 1.1056 
479 91.768 45.194 10.385 55.575 36.550 1.4386 
480 7.8976 42.553 25.130 4.9710 9.2481 7.6829 
481 54.269 55.846 25.175 23.010 24.265 7.7433 
482 41.937 24.646 5.4249 10.540 7.5937 0.57858 
483 89.502 33.423 70.991 65.067 35.585 51.385 
484 75.301 54.745 14.159 39.160 32.655 2.3971 
485 76.653 6.2202 65.750 45.910 21.961 42.769 
486 58.072 77.769 7.4688 30.241 43.038 4.0516 
487 27.429 73.801 76.267 29.430 37.329 64.024 
488 39.961 56.279 74.128 28.546 26.280 58.416 
489 23.430 28.561 70.622 16.759 9.7625 51.914 
490 91.285 49.258 68.377 67.635 42.605 49.377 
491 95.591 89.122 11.382 72.929 74.018 5.9076 
492 28.451 92.151 76.841 36.447 55.493 67.787 
493 26.242 26.080 53.808 11.583 7.2119 27.943 
494 15.957 92.746 24.983 19.920 50.422 11.277 
495 13.563 9.1545 61.533 10.401 4.1206 37.936 
496 13.216 24.593 54.939 9.1000 6.2350 28.986 
497 91.885 89.769 79.537 85.618 78.926 71.164 
498 100.00 88.684 29.334 80.573 77.347 12.206 
499 34.090 65.771 20.136 14.864 26.455 6.1916 
500 20.961 77.373 9.9329 14.055 34.018 5.3708 
501 48.985 66.059 50.556 27.211 32.109 27.866 
502 92.409 9.0241 90.897 75.857 35.489 91.756 
503 40.340 11.090 52.408 15.707 7.6425 26.921 
504 41.367 58.198 88.277 36.209 30.027 85.621 
505 72.147 77.604 91.982 65.154 57.127 95.866 
506 12.761 67.714 50.147 15.533 26.617 28.012 
507 76.617 25.882 91.445 59.123 29.316 92.366 
508 92.734 34.742 50.285 61.912 35.367 23.006 
509 16.114 24.640 92.845 26.135 12.622 94.317 
510 22.589 72.255 61.762 21.955 33.079 41.491 
511 79.742 58.911 30.090 45.820 37.634 10.542 
512 75.000 100.00 87.265 73.427 81.244 90.566 
513 22.068 58.052 24.509 9.9071 19.007 8.0151 
514 29.302 20.341 8.3315 5.3808 4.3211 0.83856 
515 75.009 40.707 41.951 40.171 26.390 17.396 
516 76.599 13.357 74.764 49.836 23.583 58.708 
517 10.272 88.110 94.612 41.116 52.604 104.79 
518 34.093 23.728 89.777 29.111 13.574 88.790 
519 29.867 13.694 72.950 18.492 8.6249 54.032 
520 64.983 91.010 77.614 56.356 64.838 68.228 
521 66.135 26.770 20.928 26.946 16.522 3.6817 
522 36.207 25.309 75.344 22.633 11.997 59.192 
523 78.931 73.018 10.687 47.123 47.399 3.6109 
524 30.391 22.415 20.277 6.1917 4.9736 3.8265 
525 11.242 82.956 64.472 24.693 42.589 46.788 
526 80.459 87.628 28.607 54.911 63.304 12.983 
527 27.707 31.870 88.315 26.913 14.926 86.631 
528 62.060 36.458 46.606 28.646 19.306 21.988 
529 29.542 11.104 53.546 11.483 5.3015 28.216 
530 68.762 19.114 33.778 30.144 16.461 10.177 
531 59.637 48.524 31.174 26.137 22.483 9.9850 
532 48.298 33.520 100.00 42.399 21.520 112.45 
533 45.598 28.163 66.475 23.527 13.680 44.800 
534 29.918 44.928 90.506 30.535 20.875 90.355 
535 78.316 92.636 77.206 69.628 73.506 67.660 
536 91.281 57.367 55.776 65.307 45.981 30.169 
537 21.692 25.080 26.495 5.0455 4.5742 6.9220 
538 74.304 63.813 94.636 64.468 47.156 100.16 
539 88.481 29.745 32.468 51.431 29.294 10.050 
540 59.486 41.236 87.042 43.477 25.684 84.208 
541 92.045 78.449 60.137 73.533 62.623 40.785 
542 61.977 24.673 6.6648 22.437 13.453 1.0546 
543 40.162 92.786 90.522 48.117 60.753 96.875 
544 36.748 77.066 93.097 42.849 44.392 101.41 
545 20.161 69.446 29.150 12.884 26.574 11.779 
546 47.187 88.771 0.0000 27.635 50.458 5.4131 
547 44.188 43.219 90.474 36.155 23.253 89.660 
548 8.9634 92.695 8.7975 17.588 49.915 5.8402 
549 32.387 45.286 72.510 22.622 17.951 55.653 
550 48.879 44.876 39.601 19.924 18.220 15.438 
551 61.287 11.463 77.817 37.290 17.059 64.919 
552 25.396 43.768 11.365 6.8051 11.622 2.4035 
553 76.983 53.137 73.131 53.824 37.224 57.789 
554 43.083 65.437 28.359 19.276 28.293 9.5682 
555 11.708 51.209 32.796 8.0641 14.592 11.865 
556 71.238 41.136 23.296 33.361 23.685 5.2828 
557 21.758 7.4731 22.877 3.6702 2.2260 4.1658 
558 23.721 37.471 27.997 6.8604 8.7996 7.5985 
559 10.847 0.0000 52.434 7.2250 3.0111 25.961 
560 52.184 32.794 25.185 18.068 13.145 6.4581 
561 25.164 57.264 2.5113 9.0007 18.266 2.4529 
562 25.531 62.973 45.088 15.333 24.398 21.434 
563 59.406 92.015 9.9812 36.720 58.556 6.8437 
564 9.0031 43.883 94.414 28.770 19.541 99.411 
565 29.380 24.618 40.510 9.1519 6.3954 15.656 
566 56.497 10.252 5.6832 17.739 9.2856 0.87945 
567 70.521 20.255 56.201 36.682 19.098 31.198 
568 81.365 40.212 31.436 44.577 28.930 8.8957 
569 56.550 19.280 86.012 38.143 18.101 80.011 
570 25.096 37.115 57.433 13.651 11.755 32.792 
571 87.229 43.818 88.570 71.162 41.138 86.624 
572 9.0945 89.498 36.178 19.198 46.896 17.034 
573 60.107 91.337 22.013 37.650 57.667 10.727 
574 43.216 91.406 24.486 27.616 52.309 11.369 
575 55.315 58.321 10.243 23.012 25.406 4.4195 
576 63.269 92.590 62.685 49.481 63.375 45.690 
577 20.915 89.348 8.0709 18.068 45.567 6.5732 
578 33.841 42.636 23.687 10.408 12.348 6.5924 
579 82.320 36.054 11.955 43.229 26.772 1.6129 
580 78.197 45.345 53.373 46.895 31.048 28.365 
581 87.492 64.105 49.348 60.193 47.442 24.961 
582 80.208 74.738 68.707 60.921 54.138 50.820 
583 12.847 33.194 39.194 6.3634 7.0027 14.931 
584 15.215 55.484 78.368 22.677 22.203 66.339 
585 25.437 6.1049 39.533 6.9699 3.6146 14.188 
586 57.870 49.584 46.944 28.352 23.612 22.127 
587 67.620 65.849 53.975 41.190 38.838 30.082 
588 26.643 41.991 38.871 10.165 12.010 14.774 
589 42.800 8.7865 22.456 10.970 5.8282 4.1936 
590 57.049 35.385 77.322 35.940 21.295 62.651 
591 36.112 43.832 54.787 17.540 15.950 30.456 
592 62.719 62.395 77.348 44.809 37.241 65.627 
593 60.706 81.416 54.884 40.553 50.032 33.242 
594 90.695 4.9508 56.719 58.732 28.773 31.927 
595 43.936 24.373 43.898 15.554 9.6959 18.675 
596 4.3825 24.210 30.612 3.2456 3.7508 8.6278 
597 53.911 79.942 42.742 32.618 44.615 22.068 
598 90.172 22.149 68.288 62.477 31.798 47.947 
599 77.586 29.345 63.000 46.666 25.436 40.562 
600 60.572 25.668 63.187 31.783 17.043 40.384 
601 97.729 10.927 74.359 75.027 36.480 56.937 
602 57.769 8.0576 53.146 25.180 11.984 26.986 
603 77.517 92.691 61.488 62.311 70.626 43.401 
604 44.198 38.831 60.002 21.761 16.009 35.808 
605 65.034 81.736 33.440 39.329 50.215 13.083 
606 67.829 69.791 24.123 36.307 39.517 7.6631 
607 25.001 99.668 13.437 23.797 59.431 8.7252 
608 89.683 25.837 56.548 58.368 30.898 31.613 
609 41.656 51.246 11.867 14.178 18.086 3.3610 
610 23.720 38.131 96.840 31.250 18.236 105.02 
611 78.049 6.5915 25.803 37.343 18.613 6.6775 
612 46.116 56.291 55.290 24.488 24.399 32.075 
613 92.023 9.1483 37.844 56.172 27.918 13.515 
614 91.068 89.904 23.497 69.202 71.412 10.795 
615 76.477 27.045 32.402 37.789 21.390 9.3510 
616 42.661 5.2197 80.136 26.855 11.596 68.344 
617 6.2584 65.435 77.208 24.003 28.735 64.853 
618 89.710 95.846 52.578 74.308 80.458 32.680 
619 88.397 77.149 94.397 83.703 65.924 103.06 
620 78.888 91.034 93.609 77.412 74.790 103.36 
621 47.820 92.501 59.000 38.295 57.859 41.351 
622 23.826 47.444 80.539 24.560 18.792 72.426 
623 9.0413 12.290 37.978 4.0812 2.3115 13.737 
624 23.331 16.308 46.267 8.3112 4.4119 20.518 
625 35.756 10.704 35.900 9.7632 4.8286 12.066 
626 2.9969 77.210 88.879 33.556 40.710 90.341 
627 28.436 75.743 23.117 16.194 33.206 8.9825 
628 9.0221 78.989 30.580 14.686 35.612 12.240 
629 8.8030 17.371 0.30943 1.2475 1.8492 0.43174 
630 60.160 36.719 3.7856 22.108 16.669 0.96684 
631 7.0698 90.899 57.373 24.807 49.963 37.973 
632 79.721 9.5270 45.163 42.385 20.905 20.247 
633 10.879 74.236 95.746 36.820 39.407 107.26 
634 64.217 22.086 74.373 38.441 19.280 58.976 
635 70.017 40.853 76.607 46.664 28.167 63.625 
636 4.7334 24.411 48.203 6.7331 4.6371 23.322 
637 50.973 26.358 13.005 15.604 10.317 1.5446 
638 2.5724 55.065 90.994 28.812 23.594 93.467 
639 90.879 45.601 57.982 63.174 39.017 32.944 
640 68.145 79.947 44.862 43.616 50.634 21.735 
641 1.4829 67.595 54.158 15.661 27.116 30.337 
642 98.031 12.492 26.865 62.102 32.134 4.6151 
643 76.470 93.209 18.886 52.257 67.373 8.4115 
644 87.292 66.922 80.462 72.128 53.679 71.052 
645 10.233 96.829 47.233 24.793 56.839 26.833 
646 68.028 67.167 39.031 38.140 38.688 16.632 
647 45.312 94.998 9.2426 29.214 57.308 8.0997 
648 77.970 53.709 40.015 44.788 33.871 17.380 
649 39.314 57.645 38.800 17.863 22.112 17.033 
650 57.297 82.865 67.439 43.362 50.985 51.550 
651 37.555 22.599 31.928 10.699 6.9012 9.7773 
652 92.350 23.597 40.911 58.138 31.011 14.836 
653 9.3660 69.976 21.141 10.804 26.844 6.7145 
654 51.187 19.140 23.012 15.883 9.6835 4.5143 
655 79.397 80.212 79.858 66.946 60.713 71.358 
656 95.392 55.226 12.927 62.800 44.826 2.2274 
657 41.375 92.945 46.055 31.455 55.884 26.163 
658 45.146 82.618 89.901 46.468 51.723 93.735 
659 77.443 63.822 71.275 56.019 44.328 54.038 
660 53.973 31.254 55.289 25.166 15.657 30.095 
661 67.321 92.812 91.875 66.761 71.241 99.517 
662 39.436 37.141 40.709 14.385 12.529 16.325 
663 97.731 46.918 91.781 86.828 49.993 94.317 
664 40.993 6.1961 67.428 20.379 9.0975 46.347 
665 79.123 80.606 57.718 57.513 57.474 38.008 
666 28.913 52.537 29.968 11.109 16.584 10.115 
667 14.658 37.254 73.035 17.579 12.456 56.332 
668 82.795 16.173 87.132 62.249 29.596 83.683 
669 8.3262 91.659 83.695 36.517 54.471 82.489 
670 45.527 77.031 49.285 28.481 39.862 28.309 
671 9.0854 40.031 62.080 12.819 11.813 39.084 
672 95.919 70.219 40.212 70.795 56.776 17.440 
673 42.670 92.336 77.786 42.975 59.753 69.330 
674 94.260 40.143 78.486 74.653 42.497 64.008 
675 65.647 53.082 89.436 51.330 35.335 87.589 
676 81.521 18.364 16.183 40.421 22.156 1.3533 
677 8.4681 2.0260 9.4857 0.90209 0.52160 1.2855 
678 30.651 60.550 56.553 19.405 24.668 33.741 
679 53.483 73.043 73.646 39.614 42.014 60.227 
680 90.408 54.335 1.4985 55.497 40.543 1.7231 
681 26.668 7.7075 63.496 13.914 6.1180 40.504 
682 58.933 25.917 94.913 45.213 22.024 101.05 
683 9.8548 0.76371 72.617 14.265 5.6034 54.851 
684 47.990 75.517 31.176 25.638 37.358 13.575 
685 48.087 9.0808 60.091 21.739 10.106 35.796 
686 10.988 21.876 19.614 2.5258 2.9675 3.9375 
687 22.598 55.646 65.078 18.655 20.952 44.026 
688 9.0697 82.142 78.531 29.892 43.508 69.080 
689 90.301 42.459 39.120 57.661 36.039 14.580 
690 47.378 36.472 11.171 14.560 12.969 1.0433 
691 49.382 1.8032 9.6600 13.328 6.9864 1.3032 
692 1.9703 20.522 9.5307 1.0022 2.4320 1.0124 
693 81.649 69.738 31.735 51.159 47.039 11.891 
694 34.530 73.626 67.130 28.083 36.772 49.617 
695 81.659 80.940 43.479 56.976 58.030 22.789 
696 10.291 63.628 90.197 30.602 29.911 92.022 
697 9.3825 51.554 18.669 6.0720 14.051 4.6221 
698 17.762 96.201 72.191 34.067 58.709 61.909 
699 67.560 52.693 6.6256 30.829 26.892 2.0831 
700 45.853 7.7641 41.225 15.420 7.8361 15.397 
701 10.950 73.197 73.054 24.577 34.073 58.927 
702 30.698 39.723 1.5250 7.4793 9.7346 1.6375 
703 81.002 52.333 91.825 67.483 42.344 93.644 
704 51.213 8.0050 98.430 40.984 17.862 105.19 
705 5.4368 7.4372 80.307 17.412 6.9834 67.552 
706 23.483 5.5586 76.358 18.089 7.3776 60.139 
707 32.278 78.328 11.186 17.257 36.238 5.2185 
708 4.5816 10.694 55.933 8.4091 3.5798 30.693 
709 89.829 62.524 36.614 59.344 46.620 14.146 
710 80.544 47.439 8.1742 42.191 30.785 2.0645 
711 52.750 18.751 64.422 26.066 13.436 41.828 
712 62.358 2.6644 71.659 34.797 16.103 53.608 
713 64.674 45.928 67.561 38.708 26.663 47.483 
714 9.4766 33.184 90.141 24.990 13.824 90.289 
715 70.466 56.323 80.091 51.818 36.692 71.703 
716 57.237 71.111 99.776 55.330 46.433 113.75 
717 87.665 54.898 77.235 68.337 44.779 63.824 
718 16.330 71.595 0.85939 10.806 27.985 3.3907 
719 35.300 79.117 32.908 20.899 38.274 13.911 
720 28.667 65.599 9.3944 12.344 24.848 3.2071 
721 6.4435 54.089 70.225 18.007 20.288 50.713 
722 61.839 6.8281 38.810 24.800 12.769 13.365 
723 26.820 89.870 94.786 44.483 57.555 103.86 
724 5.7523 92.776 20.962 18.335 49.747 9.3278 
725 75.073 63.309 7.8752 40.233 37.268 3.8628 
726 61.102 20.846 50.693 27.329 14.816 24.903 
727 22.212 92.446 35.502 22.190 50.790 17.689 
728 92.086 35.290 8.3735 54.659 32.166 1.5711 
729 6.1371 56.812 8.6847 6.2663 16.511 3.1231 
730 17.496 95.134 90.968 42.722 60.104 99.145 
731 97.652 22.856 91.040 83.225 40.592 91.761 
732 49.838 56.677 94.927 44.168 32.211 102.24 
733 52.347 66.189 89.979 45.517 38.713 91.950 
734 9.2025 61.070 60.052 16.021 22.709 37.299 
735 91.322 33.889 95.067 78.582 41.136 98.471 
736 35.535 50.421 47.701 16.644 18.391 22.999 
737 90.687 67.765 92.424 83.113 59.245 95.676 
738 23.140 27.979 7.2528 4.0203 5.3749 0.46467 
739 74.571 37.346 94.340 59.140 32.257 98.548 
740 94.499 74.711 82.469 84.206 65.210 76.938 
741 43.662 60.242 6.7089 16.587 23.736 3.0796 
742 94.229 53.959 43.646 64.642 44.437 19.750 
743 88.819 11.383 66.503 60.356 29.156 45.503 
744 32.047 21.909 62.334 15.534 8.3440 38.879 
745 54.950 92.541 82.626 51.863 63.110 78.908 
746 71.956 56.212 58.905 44.247 34.416 35.671 
747 99.325 70.902 23.244 73.212 58.995 5.9724 
748 90.147 23.875 23.537 52.446 28.514 4.1538 
749 4.9251 37.670 45.258 7.6152 9.0718 19.640 
750 92.003 4.3641 46.508 57.761 28.813 19.740 
751 8.0287 68.481 36.597 12.421 26.328 15.538 
752 94.712 55.380 27.877 62.710 44.496 7.7301 
753 59.036 41.793 22.693 23.360 18.738 5.6753 
754 75.085 4.1457 81.543 50.310 23.348 71.103 
755 63.301 73.580 81.794 50.591 47.141 76.297 
756 87.889 97.159 72.707 79.329 81.859 62.653 
757 39.453 9.5152 91.318 31.623 12.679 94.145 
758 26.353 18.572 94.841 29.085 12.463 100.92 
759 19.325 8.4249 4.4960 2.2084 1.8300 0.26461 
760 14.945 80.063 53.214 20.200 38.590 30.604 
761 56.393 7.7606 18.733 18.331 9.5699 3.2453 
762 53.296 91.987 40.941 36.326 57.749 21.504 
763 91.714 5.4089 17.461 53.028 27.218 1.2900 
764 35.214 69.883 47.511 20.942 31.128 24.324 
765 54.174 65.046 39.976 27.388 32.087 16.384 
766 0.48739 73.380 13.583 10.718 28.796 5.5696 
767 45.038 24.464 90.440 34.208 16.707 89.506 
768 63.657 41.354 57.623 33.412 22.912 33.064 
769 60.349 99.318 73.525 54.367 72.513 63.152 
770 45.802 53.303 31.659 18.598 20.825 11.491 
771 66.010 80.362 74.383 51.129 52.991 63.020 
772 23.949 64.714 91.592 34.024 32.039 96.292 
773 74.347 9.4171 54.078 39.440 19.222 28.849 
774 92.529 91.743 63.785 79.981 77.270 47.628 
775 27.251 94.198 55.878 29.508 54.811 38.624 
776 35.570 11.733 10.395 6.8383 4.4972 0.46295 
777 2.5649 51.038 46.451 10.152 15.221 21.683 
778 91.133 22.688 78.884 68.827 34.938 64.296 
779 9.3684 3.2632 25.712 2.0862 1.0903 6.0172 
780 89.782 58.781 98.566 82.417 53.167 107.36 
781 91.178 92.619 40.078 72.796 77.171 19.045 
782 67.918 75.593 60.707 46.037 47.807 39.718 
783 21.214 7.6666 93.134 26.376 10.218 96.584 
784 16.312 15.496 27.702 3.3014 2.5296 6.6987 
785 55.058 61.647 63.033 33.236 31.609 42.913 
786 64.827 43.743 39.237 30.142 22.855 15.191 
787 76.437 76.558 23.556 45.957 49.311 8.8621 
788 23.505 31.715 37.321 7.6344 7.2207 13.684 
789 73.049 16.469 95.896 57.167 26.202 103.40 
790 86.350 91.415 7.6506 62.466 69.966 6.7352 
791 75.383 18.628 65.782 44.456 22.465 43.621 
792 69.893 90.723 32.423 46.595 60.942 15.051 
793 48.410 50.555 75.728 32.140 24.964 61.175 
794 66.070 6.5086 22.487 26.098 13.638 3.7909 
795 56.705 65.792 24.032 27.196 32.370 7.4352 
796 76.562 34.662 51.314 42.563 25.897 25.181 
797 79.282 37.864 70.629 52.212 30.425 51.552 
798 61.860 83.501 85.092 54.508 57.000 82.050 
799 55.206 71.204 58.769 34.654 39.151 36.401 
800 41.161 67.679 77.016 33.453 34.708 66.598 
801 39.082 35.254 73.407 24.349 15.453 56.818 
802 54.232 98.131 91.703 58.642 72.019 100.56 
803 52.316 68.565 11.225 23.534 32.185 4.6989 
804 13.126 31.651 17.948 3.3414 5.4413 4.0780 
805 41.211 67.640 94.245 42.204 37.334 103.09 
806 6.2691 78.009 44.653 16.831 34.560 23.929 
807 18.472 48.506 58.249 14.629 15.818 35.484 
808 91.193 95.684 89.468 91.987 85.688 94.172 
809 90.576 89.753 96.277 92.039 80.583 106.01 
810 91.055 18.181 4.8873 52.191 27.517 4.8158e+04 
811 9.5158 57.466 44.934 11.097 19.335 20.824 
812 74.253 8.6243 35.462 35.390 17.781 11.062 
813 30.958 79.592 58.964 25.577 40.630 38.090 
814 64.297 44.200 12.447 27.027 21.885 2.2405 
815 90.387 78.022 2.1230 61.893 58.694 3.8468 
816 38.276 57.670 62.470 23.441 24.309 42.022 
817 69.306 81.298 10.013 40.222 50.297 5.8148 
818 11.786 56.194 98.458 33.642 26.418 111.17 
819 37.361 92.605 63.696 34.729 56.161 48.313 
820 99.099 26.774 11.310 62.698 34.700 0.33326 
821 33.690 80.487 44.100 23.083 40.134 22.979 
822 58.378 47.696 96.771 49.125 30.522 105.85 
823 8.3100 80.971 8.1118 13.381 35.905 6.1368 
824 36.053 31.424 11.914 8.8074 8.2708 2.2612 
825 23.960 74.365 97.709 39.898 41.348 109.06 
826 2.2643 18.895 91.763 24.482 10.446 92.392 
827 33.230 92.745 7.8538 23.147 52.153 6.1213 
828 74.486 38.764 0.43818 34.815 23.641 0.63046 
829 72.293 67.732 84.511 58.282 47.207 79.237 
830 71.349 55.278 23.750 35.963 30.654 6.8262 
831 10.998 19.916 82.596 19.749 8.8518 73.942 
832 1.5798 33.328 79.698 19.632 11.535 69.723 
833 61.955 8.9911 90.766 44.483 19.660 91.130 
834 44.195 40.277 31.491 15.532 14.070 9.9061 
835 59.060 79.425 21.320 32.699 44.505 8.0122 
836 9.8214 2.9467 42.842 5.0758 2.2417 17.120 
END_DATA
CAL    

DESCRIPTOR "Argyll Device Calibration State"
ORIGINATOR "Argyll dispread"
CREATED "Tue Jan 10 14:28:52 2012"
KEYWORD "DEVICE_CLASS"
DEVICE_CLASS "DISPLAY"
KEYWORD "COLOR_REP"
COLOR_REP "RGB"

KEYWORD "RGB_I"
NUMBER_OF_FIELDS 4
BEGIN_DATA_FORMAT
RGB_I RGB_R RGB_G RGB_B 
END_DATA_FORMAT

NUMBER_OF_SETS 256
BEGIN_DATA
0.0000 0.0000 0.0000 0.0000 
3.9216e-03 3.9216e-03 3.9216e-03 3.9216e-03 
7.8431e-03 7.8431e-03 7.8431e-03 7.8431e-03 
0.011765 0.011765 0.011765 0.011765 
0.015686 0.015686 0.015686 0.015686 
0.019608 0.019608 0.019608 0.019608 
0.023529 0.023529 0.023529 0.023529 
0.027451 0.027451 0.027451 0.027451 
0.031373 0.031373 0.031373 0.031373 
0.035294 0.035294 0.035294 0.035294 
0.039216 0.039216 0.039216 0.039216 
0.043137 0.043137 0.043137 0.043137 
0.047059 0.047059 0.047059 0.047059 
0.050980 0.050980 0.050980 0.050980 
0.054902 0.054902 0.054902 0.054902 
0.058824 0.058824 0.058824 0.058824 
0.062745 0.062745 0.062745 0.062745 
0.066667 0.066667 0.066667 0.066667 
0.070588 0.070588 0.070588 0.070588 
0.074510 0.074510 0.074510 0.074510 
0.078431 0.078431 0.078431 0.078431 
0.082353 0.082353 0.082353 0.082353 
0.086275 0.086275 0.086275 0.086275 
0.090196 0.090196 0.090196 0.090196 
0.094118 0.094118 0.094118 0.094118 
0.098039 0.098039 0.098039 0.098039 
0.10196 0.10196 0.10196 0.10196 
0.10588 0.10588 0.10588 0.10588 
0.10980 0.10980 0.10980 0.10980 
0.11373 0.11373 0.11373 0.11373 
0.11765 0.11765 0.11765 0.11765 
0.12157 0.12157 0.12157 0.12157 
0.12549 0.12549 0.12549 0.12549 
0.12941 0.12941 0.12941 0.12941 
0.13333 0.13333 0.13333 0.13333 
0.13725 0.13725 0.13725 0.13725 
0.14118 0.14118 0.14118 0.14118 
0.14510 0.14510 0.14510 0.14510 
0.14902 0.14902 0.14902 0.14902 
0.15294 0.15294 0.15294 0.15294 
0.15686 0.15686 0.15686 0.15686 
0.16078 0.16078 0.16078 0.16078 
0.16471 0.16471 0.16471 0.16471 
0.16863 0.16863 0.16863 0.16863 
0.17255 0.17255 0.17255 0.17255 
0.17647 0.17647 0.17647 0.17647 
0.18039 0.18039 0.18039 0.18039 
0.18431 0.18431 0.18431 0.18431 
0.18824 0.18824 0.18824 0.18824 
0.19216 0.19216 0.19216 0.19216 
0.19608 0.19608 0.19608 0.19608 
0.20000 0.20000 0.20000 0.20000 
0.20392 0.20392 0.20392 0.20392 
0.20784 0.20784 0.20784 0.20784 
0.21176 0.21176 0.21176 0.21176 
0.21569 0.21569 0.21569 0.21569 
0.21961 0.21961 0.21961 0.21961 
0.22353 0.22353 0.22353 0.22353 
0.22745 0.22745 0.22745 0.22745 
0.23137 0.23137 0.23137 0.23137 
0.23529 0.23529 0.23529 0.23529 
0.23922 0.23922 0.23922 0.23922 
0.24314 0.24314 0.24314 0.24314 
0.24706 0.24706 0.24706 0.24706 
0.25098 0.25098 0.25098 0.25098 
0.25490 0.25490 0.25490 0.25490 
0.25882 0.25882 0.25882 0.25882 
0.26275 0.26275 0.26275 0.26275 
0.26667 0.26667 0.26667 0.26667 
0.27059 0.27059 0.27059 0.27059 
0.27451 0.27451 0.27451 0.27451 
0.27843 0.27843 0.27843 0.27843 
0.28235 0.28235 0.28235 0.28235 
0.28627 0.28627 0.28627 0.28627 
0.29020 0.29020 0.29020 0.29020 
0.29412 0.29412 0.29412 0.29412 
0.29804 0.29804 0.29804 0.29804 
0.30196 0.30196 0.30196 0.30196 
0.30588 0.30588 0.30588 0.30588 
0.30980 0.30980 0.30980 0.30980 
0.31373 0.31373 0.31373 0.31373 
0.31765 0.31765 0.31765 0.31765 
0.32157 0.32157 0.32157 0.32157 
0.32549 0.32549 0.32549 0.32549 
0.32941 0.32941 0.32941 0.32941 
0.33333 0.33333 0.33333 0.33333 
0.33725 0.33725 0.33725 0.33725 
0.34118 0.34118 0.34118 0.34118 
0.34510 0.34510 0.34510 0.34510 
0.34902 0.34902 0.34902 0.34902 
0.35294 0.35294 0.35294 0.35294 
0.35686 0.35686 0.35686 0.35686 
0.36078 0.36078 0.36078 0.36078 
0.36471 0.36471 0.36471 0.36471 
0.36863 0.36863 0.36863 0.36863 
0.37255 0.37255 0.37255 0.37255 
0.37647 0.37647 0.37647 0.37647 
0.38039 0.38039 0.38039 0.38039 
0.38431 0.38431 0.38431 0.38431 
0.38824 0.38824 0.38824 0.38824 
0.39216 0.39216 0.39216 0.39216 
0.39608 0.39608 0.39608 0.39608 
0.40000 0.40000 0.40000 0.40000 
0.40392 0.40392 0.40392 0.40392 
0.40784 0.40784 0.40784 0.40784 
0.41176 0.41176 0.41176 0.41176 
0.41569 0.41569 0.41569 0.41569 
0.41961 0.41961 0.41961 0.41961 
0.42353 0.42353 0.42353 0.42353 
0.42745 0.42745 0.42745 0.42745 
0.43137 0.43137 0.43137 0.43137 
0.43529 0.43529 0.43529 0.43529 
0.43922 0.43922 0.43922 0.43922 
0.44314 0.44314 0.44314 0.44314 
0.44706 0.44706 0.44706 0.44706 
0.45098 0.45098 0.45098 0.45098 
0.45490 0.45490 0.45490 0.45490 
0.45882 0.45882 0.45882 0.45882 
0.46275 0.46275 0.46275 0.46275 
0.46667 0.46667 0.46667 0.46667 
0.47059 0.47059 0.47059 0.47059 
0.47451 0.47451 0.47451 0.47451 
0.47843 0.47843 0.47843 0.47843 
0.48235 0.48235 0.48235 0.48235 
0.48627 0.48627 0.48627 0.48627 
0.49020 0.49020 0.49020 0.49020 
0.49412 0.49412 0.49412 0.49412 
0.49804 0.49804 0.49804 0.49804 
0.50196 0.50196 0.50196 0.50196 
0.50588 0.50588 0.50588 0.50588 
0.50980 0.50980 0.50980 0.50980 
0.51373 0.51373 0.51373 0.51373 
0.51765 0.51765 0.51765 0.51765 
0.52157 0.52157 0.52157 0.52157 
0.52549 0.52549 0.52549 0.52549 
0.52941 0.52941 0.52941 0.52941 
0.53333 0.53333 0.53333 0.53333 
0.53725 0.53725 0.53725 0.53725 
0.54118 0.54118 0.54118 0.54118 
0.54510 0.54510 0.54510 0.54510 
0.54902 0.54902 0.54902 0.54902 
0.55294 0.55294 0.55294 0.55294 
0.55686 0.55686 0.55686 0.55686 
0.56078 0.56078 0.56078 0.56078 
0.56471 0.56471 0.56471 0.56471 
0.56863 0.56863 0.56863 0.56863 
0.57255 0.57255 0.57255 0.57255 
0.57647 0.57647 0.57647 0.57647 
0.58039 0.58039 0.58039 0.58039 
0.58431 0.58431 0.58431 0.58431 
0.58824 0.58824 0.58824 0.58824 
0.59216 0.59216 0.59216 0.59216 
0.59608 0.59608 0.59608 0.59608 
0.60000 0.60000 0.60000 0.60000 
0.60392 0.60392 0.60392 0.60392 
0.60784 0.60784 0.60784 0.60784 
0.61176 0.61176 0.61176 0.61176 
0.61569 0.61569 0.61569 0.61569 
0.61961 0.61961 0.61961 0.61961 
0.62353 0.62353 0.62353 0.62353 
0.62745 0.62745 0.62745 0.62745 
0.63137 0.63137 0.63137 0.63137 
0.63529 0.63529 0.63529 0.63529 
0.63922 0.63922 0.63922 0.63922 
0.64314 0.64314 0.64314 0.64314 
0.64706 0.64706 0.64706 0.64706 
0.65098 0.65098 0.65098 0.65098 
0.65490 0.65490 0.65490 0.65490 
0.65882 0.65882 0.65882 0.65882 
0.66275 0.66275 0.66275 0.66275 
0.66667 0.66667 0.66667 0.66667 
0.67059 0.67059 0.67059 0.67059 
0.67451 0.67451 0.67451 0.67451 
0.67843 0.67843 0.67843 0.67843 
0.68235 0.68235 0.68235 0.68235 
0.68627 0.68627 0.68627 0.68627 
0.69020 0.69020 0.69020 0.69020 
0.69412 0.69412 0.69412 0.69412 
0.69804 0.69804 0.69804 0.69804 
0.70196 0.70196 0.70196 0.70196 
0.70588 0.70588 0.70588 0.70588 
0.70980 0.70980 0.70980 0.70980 
0.71373 0.71373 0.71373 0.71373 
0.71765 0.71765 0.71765 0.71765 
0.72157 0.72157 0.72157 0.72157 
0.72549 0.72549 0.72549 0.72549 
0.72941 0.72941 0.72941 0.72941 
0.73333 0.73333 0.73333 0.73333 
0.73725 0.73725 0.73725 0.73725 
0.74118 0.74118 0.74118 0.74118 
0.74510 0.74510 0.74510 0.74510 
0.74902 0.74902 0.74902 0.74902 
0.75294 0.75294 0.75294 0.75294 
0.75686 0.75686 0.75686 0.75686 
0.76078 0.76078 0.76078 0.76078 
0.76471 0.76471 0.76471 0.76471 
0.76863 0.76863 0.76863 0.76863 
0.77255 0.77255 0.77255 0.77255 
0.77647 0.77647 0.77647 0.77647 
0.78039 0.78039 0.78039 0.78039 
0.78431 0.78431 0.78431 0.78431 
0.78824 0.78824 0.78824 0.78824 
0.79216 0.79216 0.79216 0.79216 
0.79608 0.79608 0.79608 0.79608 
0.80000 0.80000 0.80000 0.80000 
0.80392 0.80392 0.80392 0.80392 
0.80784 0.80784 0.80784 0.80784 
0.81176 0.81176 0.81176 0.81176 
0.81569 0.81569 0.81569 0.81569 
0.81961 0.81961 0.81961 0.81961 
0.82353 0.82353 0.82353 0.82353 
0.82745 0.82745 0.82745 0.82745 
0.83137 0.83137 0.83137 0.83137 
0.83529 0.83529 0.83529 0.83529 
0.83922 0.83922 0.83922 0.83922 
0.84314 0.84314 0.84314 0.84314 
0.84706 0.84706 0.84706 0.84706 
0.85098 0.85098 0.85098 0.85098 
0.85490 0.85490 0.85490 0.85490 
0.85882 0.85882 0.85882 0.85882 
0.86275 0.86275 0.86275 0.86275 
0.86667 0.86667 0.86667 0.86667 
0.87059 0.87059 0.87059 0.87059 
0.87451 0.87451 0.87451 0.87451 
0.87843 0.87843 0.87843 0.87843 
0.88235 0.88235 0.88235 0.88235 
0.88627 0.88627 0.88627 0.88627 
0.89020 0.89020 0.89020 0.89020 
0.89412 0.89412 0.89412 0.89412 
0.89804 0.89804 0.89804 0.89804 
0.90196 0.90196 0.90196 0.90196 
0.90588 0.90588 0.90588 0.90588 
0.90980 0.90980 0.90980 0.90980 
0.91373 0.91373 0.91373 0.91373 
0.91765 0.91765 0.91765 0.91765 
0.92157 0.92157 0.92157 0.92157 
0.92549 0.92549 0.92549 0.92549 
0.92941 0.92941 0.92941 0.92941 
0.93333 0.93333 0.93333 0.93333 
0.93725 0.93725 0.93725 0.93725 
0.94118 0.94118 0.94118 0.94118 
0.94510 0.94510 0.94510 0.94510 
0.94902 0.94902 0.94902 0.94902 
0.95294 0.95294 0.95294 0.95294 
0.95686 0.95686 0.95686 0.95686 
0.96078 0.96078 0.96078 0.96078 
0.96471 0.96471 0.96471 0.96471 
0.96863 0.96863 0.96863 0.96863 
0.97255 0.97255 0.97255 0.97255 
0.97647 0.97647 0.97647 0.97647 
0.98039 0.98039 0.98039 0.98039 
0.98431 0.98431 0.98431 0.98431 
0.98824 0.98824 0.98824 0.98824 
0.99216 0.99216 0.99216 0.99216 
0.99608 0.99608 0.99608 0.99608 
1.0000 1.0000 1.0000 1.0000 
END_DATA
