CTI3   

DESCRIPTOR "Argyll Calibration Target chart information 3"
ORIGINATOR "Argyll dispread"
CREATED "Thu Mar  8 07:58:55 2012"
KEYWORD "DEVICE_CLASS"
DEVICE_CLASS "DISPLAY"
KEYWORD "COLOR_REP"
COLOR_REP "RGB_XYZ"
KEYWORD "TARGET_INSTRUMENT"
TARGET_INSTRUMENT "Hughski ColorHug"
KEYWORD "INSTRUMENT_TYPE_SPECTRAL"
INSTRUMENT_TYPE_SPECTRAL "NO"
KEYWORD "LUMINANCE_XYZ_CDM2"
LUMINANCE_XYZ_CDM2 "83.086685 89.959351 152.384583"
KEYWORD "NORMALIZED_TO_Y_100"
NORMALIZED_TO_Y_100 "YES"

NUMBER_OF_FIELDS 7
BEGIN_DATA_FORMAT
SAMPLE_ID RGB_R RGB_G RGB_B XYZ_X XYZ_Y XYZ_Z 
END_DATA_FORMAT

NUMBER_OF_SETS 836
BEGIN_DATA
1 100.00 100.00 100.00 92.360 100.00 169.39 
2 100.00 100.00 100.00 93.222 99.283 172.62 
3 100.00 100.00 100.00 93.968 102.18 172.66 
4 100.00 100.00 100.00 93.746 101.28 189.16 
5 0.0000 100.00 100.00 61.250 83.702 192.74 
6 0.0000 0.0000 0.0000 0.97061 1.1979 1.2443 
7 0.0000 0.0000 100.00 32.247 10.802 169.51 
8 100.00 0.0000 0.0000 35.097 18.315 -1.1671 
9 100.00 100.00 0.0000 64.104 88.787 16.486 
10 0.0000 100.00 0.0000 28.375 72.907 16.994 
11 100.00 0.0000 100.00 68.817 27.399 175.31 
12 0.0000 49.772 100.00 37.075 18.903 180.66 
13 0.0000 52.030 0.0000 5.1276 12.223 3.3675 
14 0.0000 0.0000 52.760 6.6786 2.8707 32.585 
15 100.00 0.0000 45.125 38.311 19.047 18.918 
16 100.00 49.621 100.00 72.072 38.029 173.47 
17 100.00 53.697 0.0000 40.466 30.655 0.94291 
18 44.554 0.0000 0.0000 4.3527 2.8275 0.94827 
19 100.00 100.00 46.389 66.494 89.383 38.575 
20 0.0000 100.00 55.657 35.408 73.798 55.918 
21 49.477 100.00 100.00 65.837 86.959 191.13 
22 46.306 100.00 0.0000 32.455 75.199 16.382 
23 40.510 0.0000 100.00 35.824 11.173 177.70 
24 0.0000 52.807 50.635 10.382 14.358 30.392 
25 100.00 52.549 51.288 46.139 31.679 30.158 
26 49.732 47.591 0.0000 8.8895 11.677 2.2616 
27 48.223 0.0000 52.651 10.889 5.0497 31.161 
28 50.614 55.771 100.00 43.254 26.471 176.63 
29 49.932 100.00 55.492 39.895 76.611 51.532 
30 0.0000 25.869 0.0000 1.1710 1.7720 1.4092 
31 0.0000 0.0000 26.745 1.4828 1.3220 4.3653 
32 100.00 0.0000 72.532 49.174 22.114 76.627 
33 100.00 27.894 0.0000 36.449 19.436 -1.3895 
34 0.0000 100.00 28.029 29.394 75.384 19.716 
35 100.00 74.559 100.00 81.212 59.323 182.09 
36 0.0000 74.784 100.00 45.821 40.470 186.45 
37 100.00 100.00 74.254 78.825 97.816 92.732 
38 73.667 100.00 0.0000 44.708 83.663 12.785 
39 71.872 0.0000 100.00 47.092 17.149 172.49 
40 75.331 100.00 100.00 77.485 92.809 186.72 
41 72.712 0.0000 0.0000 15.864 8.5091 0.30314 
42 0.0000 25.804 100.00 33.077 10.940 174.20 
43 28.281 0.0000 0.0000 1.5598 1.3823 1.2376 
44 51.446 48.218 54.003 15.578 13.988 36.004 
45 100.00 100.00 29.937 63.015 92.246 17.047 
46 100.00 25.040 100.00 68.526 27.390 175.68 
47 0.0000 76.268 0.0000 14.273 37.102 7.3984 
48 24.793 100.00 100.00 58.500 86.555 170.99 
49 100.00 0.0000 27.673 36.758 18.755 2.2597 
50 100.00 76.963 0.0000 48.823 55.437 5.8278 
51 0.0000 0.0000 76.526 16.902 5.6796 87.846 
52 20.393 0.0000 100.00 32.355 10.802 169.76 
53 16.434 100.00 0.0000 28.639 75.918 15.171 
54 0.0000 100.00 83.902 48.822 80.870 127.00 
55 36.269 29.322 100.00 35.249 11.618 177.06 
56 0.0000 31.510 72.981 16.000 6.5391 80.647 
57 73.108 72.977 0.0000 27.721 40.190 5.7129 
58 32.622 73.057 0.0000 13.826 33.469 6.5669 
59 71.440 0.0000 32.833 16.254 8.6158 7.0988 
60 67.360 30.655 100.00 46.254 17.474 177.86 
61 100.00 32.435 69.725 49.611 24.241 67.171 
62 71.564 100.00 33.694 44.992 82.748 21.878 
63 0.0000 29.065 27.751 1.9916 2.4694 4.9419 
64 30.289 100.00 27.578 29.826 76.156 18.021 
65 100.00 73.586 74.348 63.618 56.433 86.142 
66 0.0000 71.529 28.374 12.706 30.995 10.292 
67 31.776 0.0000 27.675 2.5896 1.9118 4.5249 
68 0.0000 72.764 72.179 26.537 35.815 83.106 
69 100.00 71.739 30.730 47.026 47.744 9.9884 
70 68.944 29.578 0.0000 14.173 8.6274 0.46932 
71 27.661 73.523 100.00 44.802 44.103 173.49 
72 73.052 0.0000 71.273 29.475 12.438 72.304 
73 100.00 29.114 32.478 37.412 19.824 5.6275 
74 26.539 0.0000 74.456 16.205 5.6605 81.651 
75 74.574 100.00 69.826 55.789 84.418 86.554 
76 28.869 100.00 71.428 41.139 75.226 82.371 
77 29.597 24.401 0.0000 1.8583 2.0367 1.0473 
78 70.927 76.065 100.00 60.896 52.300 182.28 
79 27.482 52.084 27.416 6.3503 12.681 6.6374 
80 26.713 44.947 0.0000 4.0260 8.1319 2.4421 
81 71.088 69.567 55.036 31.344 37.696 39.261 
82 100.00 80.666 49.689 56.880 60.505 35.326 
83 0.0000 49.644 76.396 21.062 15.202 93.070 
84 74.997 48.292 100.00 53.249 27.374 178.10 
85 30.106 69.463 56.017 18.864 30.883 43.924 
86 43.286 26.755 23.045 4.5408 3.4331 2.7729 
87 74.178 48.460 28.303 20.548 17.942 5.4199 
88 0.0000 45.287 19.075 3.6236 7.8920 3.2612 
89 25.019 55.855 100.00 38.701 25.117 177.13 
90 25.534 24.047 47.724 5.7223 2.9460 24.181 
91 50.479 0.0000 83.513 26.658 9.0450 114.19 
92 44.803 100.00 71.728 45.950 81.490 88.446 
93 17.575 0.0000 48.903 5.5623 2.5266 25.868 
94 54.486 68.666 25.247 17.669 30.706 8.1154 
95 17.389 100.00 52.794 34.271 75.961 47.478 
96 0.0000 84.157 50.767 23.464 47.637 39.528 
97 72.992 28.210 48.246 20.742 10.821 24.271 
98 52.611 83.840 100.00 56.581 60.280 185.39 
99 75.352 45.506 0.0000 19.863 16.158 1.3590 
100 0.0000 14.740 49.422 5.5855 2.5961 26.379 
101 100.00 25.426 51.635 41.416 20.539 28.552 
102 100.00 50.477 80.970 58.923 34.629 101.58 
103 100.00 53.335 25.883 41.216 30.665 3.4995 
104 48.377 19.285 0.0000 5.2826 3.3917 0.89742 
105 49.554 83.843 0.0000 23.167 50.630 8.8666 
106 48.236 0.0000 17.016 5.3614 3.3371 1.4632 
107 0.0000 15.223 16.409 1.0100 1.1706 1.5271 
108 80.824 0.0000 48.615 25.085 12.342 24.025 
109 31.775 44.060 69.079 16.779 11.143 70.491 
110 51.019 100.00 27.603 34.700 76.796 19.519 
111 58.770 29.896 73.262 24.028 10.279 81.346 
112 0.0000 0.0000 13.289 0.97061 1.1979 1.2443 
113 81.710 100.00 49.485 54.136 86.503 41.204 
114 0.0000 13.147 0.0000 0.97061 1.1979 1.2443 
115 100.00 0.0000 57.896 43.870 20.549 40.637 
116 50.001 69.176 72.132 30.308 34.231 83.714 
117 0.0000 87.688 100.00 53.071 63.868 186.33 
118 71.869 54.831 69.907 33.309 25.084 73.587 
119 82.143 16.149 0.0000 21.833 11.505 -0.17357 
120 100.00 87.564 100.00 87.292 74.525 185.40 
121 100.00 14.495 0.0000 36.059 18.686 -1.6738 
122 61.965 100.00 100.00 70.140 87.847 189.59 
123 83.813 100.00 17.552 50.785 85.882 15.236 
124 50.222 18.338 100.00 38.319 12.443 177.04 
125 20.108 23.686 100.00 33.618 10.160 178.12 
126 82.329 0.0000 17.488 22.200 11.706 0.15625 
127 82.988 17.497 100.00 54.283 20.124 175.84 
128 85.854 0.0000 100.00 57.214 22.101 174.92 
129 100.00 18.671 83.334 56.614 24.303 109.10 
130 0.0000 100.00 42.183 31.090 74.920 30.630 
131 84.389 84.779 0.0000 42.060 61.196 7.8964 
132 86.979 100.00 0.0000 51.957 87.522 12.815 
133 100.00 40.961 0.0000 36.441 22.705 0.069357 
134 13.519 35.951 100.00 34.472 13.058 178.41 
135 0.0000 18.691 83.992 21.320 7.2143 111.57 
136 75.591 26.816 22.157 17.958 10.200 1.4791 
137 0.0000 100.00 13.753 28.304 73.607 16.611 
138 84.392 100.00 83.127 71.653 92.171 121.89 
139 100.00 83.416 17.234 53.507 63.779 8.2270 
140 83.965 33.908 100.00 55.527 23.112 175.41 
141 100.00 100.00 87.538 87.303 99.462 139.99 
142 86.631 0.0000 0.0000 25.107 13.135 -0.71622 
143 73.839 78.145 31.992 32.289 48.202 13.082 
144 0.0000 39.871 0.0000 2.5533 5.4739 1.9163 
145 45.403 65.868 0.0000 13.290 26.008 5.1882 
146 24.496 78.282 37.062 17.614 40.775 18.210 
147 74.349 80.128 74.975 47.197 52.600 87.486 
148 100.00 100.00 59.816 71.498 90.871 62.981 
149 21.512 19.178 24.465 1.5708 1.4833 3.4081 
150 21.152 65.244 78.145 27.294 29.055 101.58 
151 0.0000 39.445 51.456 7.6801 6.5173 30.728 
152 0.0000 37.119 86.142 23.507 11.231 116.39 
153 21.895 22.364 77.185 17.742 6.0328 91.014 
154 22.527 45.447 46.235 7.5650 9.3406 22.711 
155 100.00 61.208 100.00 75.233 44.433 177.73 
156 100.00 36.525 84.478 58.641 27.421 116.16 
157 17.251 0.0000 16.491 1.0100 1.1706 1.5271 
158 50.352 22.875 47.038 9.9878 5.0008 22.813 
159 51.534 35.754 100.00 39.540 15.840 175.54 
160 100.00 57.667 68.630 54.205 37.592 68.931 
161 0.0000 0.0000 40.019 3.3174 1.8697 14.094 
162 20.286 81.615 0.0000 16.889 43.097 9.5520 
163 13.966 66.654 0.0000 9.8493 24.750 5.5660 
164 100.00 17.864 17.617 35.601 18.570 -0.90965 
165 100.00 85.795 34.302 55.949 67.471 15.952 
166 0.0000 13.186 100.00 32.837 10.393 173.75 
167 100.00 100.00 15.296 62.150 87.992 17.819 
168 87.292 67.174 0.0000 34.373 37.685 4.0265 
169 63.018 15.087 0.0000 10.786 6.1051 0.44613 
170 60.527 100.00 0.0000 37.115 78.897 15.617 
171 100.00 0.0000 86.208 58.295 24.894 119.13 
172 35.131 100.00 85.790 52.162 82.791 134.08 
173 60.211 57.971 0.0000 15.662 21.116 3.3929 
174 54.472 76.856 50.879 26.052 41.173 36.065 
175 35.811 86.175 100.00 51.968 63.178 172.55 
176 0.0000 84.051 17.442 18.403 46.867 10.817 
177 100.00 14.213 35.817 37.788 18.987 7.6719 
178 43.710 100.00 40.760 34.493 77.825 29.869 
179 0.0000 14.517 67.391 12.416 4.1184 64.162 
180 44.831 0.0000 34.146 5.7771 3.2660 8.6329 
181 53.257 48.450 32.182 11.427 13.169 8.7197 
182 80.634 21.747 68.401 33.139 14.505 66.647 
183 33.047 87.184 0.0000 21.526 54.604 9.2971 
184 76.764 52.568 51.162 27.669 22.627 29.844 
185 100.00 15.270 67.250 47.315 21.612 62.693 
186 0.0000 85.277 65.703 30.440 53.507 71.402 
187 33.745 0.0000 87.227 25.347 7.9812 127.48 
188 34.414 0.0000 14.509 2.3524 1.8936 1.2591 
189 0.0000 68.669 57.560 18.092 29.731 45.662 
190 0.0000 66.827 12.553 10.076 25.625 5.5486 
191 67.404 100.00 18.898 40.810 78.689 17.684 
192 36.493 12.179 0.0000 2.6273 1.9995 1.1144 
193 16.869 100.00 83.869 49.090 76.730 130.43 
194 0.0000 30.989 14.139 1.5059 2.6464 1.6385 
195 85.031 31.706 0.0000 24.739 14.320 -0.45339 
196 0.0000 87.999 83.008 40.531 61.399 116.79 
197 53.960 50.013 80.356 29.571 19.277 104.87 
198 83.973 0.0000 82.844 42.492 17.483 107.29 
199 0.0000 64.669 82.369 29.158 28.881 113.67 
200 0.0000 56.916 36.220 8.1181 16.076 13.065 
201 15.312 0.0000 65.704 11.785 4.0762 60.192 
202 57.952 0.0000 0.0000 8.5959 4.9949 0.63765 
203 67.104 0.0000 57.104 19.998 9.0958 39.726 
204 86.646 0.0000 34.750 26.830 13.749 7.3344 
205 38.496 15.162 64.774 13.349 5.0788 57.463 
206 100.00 0.0000 13.908 34.586 18.076 -0.59470 
207 0.0000 62.707 100.00 39.087 31.267 168.43 
208 14.974 0.0000 85.629 23.020 6.9827 121.79 
209 100.00 84.721 85.106 75.938 73.270 125.11 
210 17.977 11.338 0.0000 1.0393 1.2243 1.2081 
211 36.369 80.565 73.488 33.176 48.752 89.507 
212 36.429 100.00 14.052 30.404 76.719 15.288 
213 17.842 34.779 0.0000 1.9916 3.7243 1.7043 
214 68.014 100.00 85.106 62.480 87.589 130.40 
215 67.422 0.0000 85.546 35.056 13.054 120.48 
216 82.617 66.865 86.564 54.831 43.553 128.07 
217 17.323 100.00 16.561 28.505 76.097 14.550 
218 36.759 62.157 100.00 42.639 30.743 181.04 
219 100.00 63.264 42.070 46.787 39.518 17.612 
220 17.144 85.171 100.00 51.951 60.122 185.77 
221 82.628 88.517 100.00 74.742 69.849 188.01 
222 42.508 59.162 43.030 13.261 20.159 21.139 
223 15.879 0.0000 32.514 2.1718 1.4717 7.6968 
224 13.914 0.0000 0.0000 0.97061 1.1979 1.2443 
225 0.0000 14.875 31.793 2.0243 1.4998 7.1672 
226 40.699 46.047 100.00 38.569 18.739 177.51 
227 33.094 13.607 100.00 34.213 10.625 175.16 
228 86.363 100.00 34.880 54.763 87.698 21.627 
229 100.00 86.140 66.213 65.217 70.669 68.209 
230 14.817 100.00 34.636 30.142 74.865 25.090 
231 100.00 34.683 17.474 36.595 20.795 -0.26727 
232 14.768 100.00 68.024 40.402 78.373 80.215 
233 31.864 0.0000 58.806 9.7643 3.7485 43.696 
234 0.0000 86.128 34.446 21.020 52.268 17.220 
235 83.837 63.507 100.00 61.691 42.158 180.09 
236 100.00 65.852 15.459 45.170 42.139 2.9134 
237 100.00 88.682 0.0000 56.405 73.350 9.3419 
238 37.474 100.00 100.00 62.844 85.716 188.58 
239 37.249 37.275 40.035 6.4674 6.1251 14.581 
240 38.416 79.284 18.329 17.694 41.231 8.4339 
241 100.00 36.249 45.449 40.962 22.553 18.875 
242 0.0000 42.567 34.875 4.5260 7.0325 10.460 
243 13.662 68.478 100.00 42.104 36.676 174.70 
244 65.114 0.0000 15.658 11.618 6.5890 0.75055 
245 16.651 51.372 62.148 14.108 14.553 52.587 
246 30.301 32.686 17.311 2.5411 3.4571 1.9711 
247 31.443 100.00 0.0000 29.446 74.713 15.065 
248 100.00 65.622 86.329 67.229 47.364 124.61 
249 55.905 83.078 65.229 34.868 51.158 65.557 
250 79.020 34.827 82.873 40.500 19.110 105.55 
251 33.586 100.00 58.033 37.789 77.794 58.463 
252 68.089 100.00 54.471 47.478 81.459 48.098 
253 56.192 0.0000 100.00 40.333 13.527 176.64 
254 39.620 32.827 80.313 22.706 9.2641 103.82 
255 66.953 86.509 0.0000 32.077 58.527 8.5660 
256 18.046 59.907 42.463 10.472 19.424 20.178 
257 57.584 16.564 27.856 9.1707 5.1612 4.5523 
258 65.771 64.234 86.396 42.932 35.305 126.14 
259 19.175 44.280 79.343 21.245 12.702 98.926 
260 100.00 12.319 100.00 68.151 28.095 169.81 
261 0.0000 37.864 100.00 34.557 13.467 177.59 
262 66.645 14.906 100.00 44.939 15.962 175.23 
263 64.728 43.933 13.565 13.818 12.491 1.6895 
264 0.0000 100.00 70.216 41.925 78.891 87.544 
265 0.0000 56.322 64.829 16.252 18.845 57.265 
266 86.394 100.00 64.034 62.684 89.924 67.322 
267 15.286 32.389 60.597 10.214 5.3997 48.184 
268 37.991 35.871 0.0000 3.9890 4.9056 1.5302 
269 87.895 100.00 100.00 86.545 97.128 188.45 
270 15.890 64.944 21.014 9.5240 23.315 6.4949 
271 83.042 42.158 62.894 34.497 19.671 53.757 
272 56.905 0.0000 68.263 19.924 8.1794 64.275 
273 18.779 78.664 66.892 26.810 42.328 70.603 
274 0.0000 88.435 0.0000 21.028 55.424 10.927 
275 45.878 54.715 14.567 9.6416 16.131 3.6415 
276 86.048 0.0000 63.785 35.003 15.715 54.498 
277 78.965 62.701 14.392 27.083 30.368 3.7776 
278 37.576 17.857 33.180 4.1398 2.5993 7.8418 
279 65.461 64.540 35.130 21.893 28.659 13.040 
280 56.818 86.289 37.172 29.130 54.452 21.586 
281 81.204 64.643 69.726 41.757 37.011 68.305 
282 0.0000 0.0000 64.151 11.004 3.8305 56.386 
283 52.632 84.625 83.829 45.250 56.864 122.44 
284 61.149 34.159 34.790 12.312 8.4247 9.2436 
285 35.850 58.040 81.134 27.411 23.275 106.84 
286 81.451 37.876 36.780 24.749 15.347 10.390 
287 40.532 33.510 54.906 10.608 6.2319 36.422 
288 62.249 80.296 17.904 26.235 46.350 9.0166 
289 82.394 81.014 42.318 40.208 53.480 25.481 
290 62.299 37.749 61.306 20.542 11.868 48.838 
291 65.438 87.967 100.00 61.899 69.688 171.07 
292 43.885 56.516 63.571 19.617 20.093 57.753 
293 69.688 17.905 84.499 35.263 13.480 115.98 
294 80.907 17.979 38.671 23.397 11.881 11.132 
295 17.922 39.705 31.967 3.6625 5.6518 7.8942 
296 38.120 85.472 46.753 25.184 52.906 31.491 
297 67.314 17.462 58.595 20.808 9.3953 43.213 
298 0.0000 63.966 0.0000 8.8019 21.922 5.2882 
299 62.015 60.503 59.767 25.213 26.188 48.620 
300 18.247 82.294 83.315 37.201 52.790 113.57 
301 60.159 100.00 41.625 39.984 76.787 33.266 
302 86.353 62.199 37.131 34.392 33.097 13.931 
303 100.00 37.431 100.00 69.345 31.027 174.44 
304 68.408 61.371 100.00 53.565 35.513 180.83 
305 19.140 83.963 16.778 18.255 46.895 10.287 
306 35.279 18.972 15.588 2.5424 2.0698 1.3785 
307 87.502 47.151 12.245 29.221 21.428 0.76870 
308 100.00 45.063 34.937 40.274 25.871 7.9554 
309 56.061 25.739 17.210 8.2332 5.2067 1.1833 
310 18.240 42.987 12.699 3.2261 6.9754 2.2382 
311 13.448 29.863 43.457 4.5385 3.2363 18.513 
312 38.482 74.148 85.897 37.046 42.578 123.16 
313 14.543 83.371 49.222 22.801 47.309 36.570 
314 18.091 13.615 62.432 10.282 3.6923 51.942 
315 13.815 21.711 13.823 1.0232 1.3211 1.4360 
316 48.683 15.942 83.897 26.455 8.9002 115.73 
317 82.366 80.818 61.248 46.770 57.259 52.274 
318 100.00 68.896 58.265 54.309 48.011 47.245 
319 59.833 100.00 69.215 48.714 79.725 76.629 
320 32.952 0.0000 43.821 5.3527 2.6771 18.590 
321 82.338 13.654 57.479 29.437 13.585 40.121 
322 63.221 60.275 19.031 17.694 23.904 4.2311 
323 100.00 43.344 61.662 46.967 27.044 47.936 
324 53.859 32.356 0.0000 7.7466 5.9951 1.1538 
325 82.507 84.815 17.579 40.149 60.605 8.8186 
326 38.797 66.277 32.675 13.146 25.806 12.045 
327 66.086 86.828 48.508 36.045 60.591 33.233 
328 0.0000 0.0000 88.968 24.986 7.5991 132.27 
329 30.125 57.327 12.958 7.4105 16.435 4.1428 
330 61.264 0.0000 43.274 13.037 6.5817 17.345 
331 85.243 49.911 88.324 51.220 29.981 125.31 
332 63.651 44.363 42.580 16.537 13.481 17.870 
333 13.066 49.050 0.0000 4.3787 10.049 2.8994 
334 61.358 41.979 89.983 36.863 18.008 136.87 
335 0.0000 42.412 64.591 13.296 9.3491 58.356 
336 62.252 44.000 0.0000 12.833 12.051 1.6854 
337 12.308 100.00 100.00 58.940 85.166 178.08 
338 73.231 86.634 87.339 58.944 63.954 137.62 
339 66.842 14.120 41.667 15.527 7.9168 15.258 
340 87.602 49.315 0.0000 29.717 22.904 0.88008 
341 14.359 14.910 38.364 3.0547 1.7323 12.579 
342 39.463 43.174 27.875 6.1287 8.3048 5.8890 
343 15.038 58.854 84.779 28.623 23.965 120.86 
344 16.321 65.564 57.352 16.647 25.987 44.362 
345 11.684 27.637 87.875 24.740 7.8439 129.97 
346 32.976 11.425 79.662 19.939 6.6657 98.073 
347 87.391 27.974 91.973 52.607 21.513 144.02 
348 87.700 12.565 22.297 26.424 13.739 0.76663 
349 75.652 15.745 12.400 17.259 9.3553 0.22685 
350 45.784 91.194 15.342 26.523 61.406 11.935 
351 85.616 81.955 84.517 62.676 63.023 123.91 
352 68.914 66.736 69.796 36.140 34.810 76.306 
353 50.580 13.330 13.168 6.0619 3.7524 1.0101 
354 100.00 65.344 0.0000 44.734 41.432 3.1761 
355 85.236 68.310 56.605 41.018 40.402 41.453 
356 0.0000 70.154 43.887 14.527 29.658 23.906 
357 8.8704 10.826 20.291 1.1020 1.2665 2.0017 
358 33.792 45.362 86.676 26.219 15.985 116.16 
359 86.950 24.708 17.128 25.523 13.707 -0.057908 
360 49.870 40.050 11.141 7.4384 7.9490 1.7907 
361 37.970 53.234 0.0000 7.4628 14.031 3.2860 
362 86.780 76.613 100.00 71.073 59.341 180.41 
363 44.081 86.600 58.964 31.633 56.569 55.037 
364 37.430 13.704 51.309 8.0686 3.6004 29.508 
365 67.541 87.695 65.666 44.143 63.784 70.501 
366 26.812 54.238 53.736 12.223 15.666 36.610 
367 18.404 51.547 34.272 6.4204 12.114 10.851 
368 53.134 62.277 87.555 37.962 30.869 132.44 
369 64.284 79.239 84.683 48.355 52.987 124.58 
370 13.229 22.228 0.0000 0.98384 1.3484 1.1531 
371 44.638 38.295 72.054 19.789 10.259 78.738 
372 88.581 41.336 76.015 44.915 23.200 89.011 
373 47.936 73.793 61.516 26.675 38.689 57.124 
374 91.563 59.878 27.023 36.488 32.475 5.8415 
375 42.823 79.534 37.873 21.021 44.093 18.324 
376 46.953 15.025 23.601 5.3653 3.2718 2.8950 
377 30.550 29.820 67.782 14.038 6.0219 65.637 
378 89.535 84.787 72.979 59.742 63.916 89.964 
379 87.661 33.797 52.807 32.988 17.402 31.253 
380 47.789 70.864 14.405 16.037 32.369 5.9744 
381 60.528 18.196 75.086 25.355 9.5470 86.668 
382 93.131 12.168 74.845 46.139 19.908 84.685 
383 61.377 45.634 100.00 45.169 20.686 178.28 
384 26.537 60.250 0.0000 8.0617 19.007 4.4098 
385 90.859 33.324 23.960 28.977 16.686 1.6344 
386 28.673 29.593 35.912 3.7326 3.0361 10.503 
387 52.668 13.136 58.645 14.286 6.2534 42.547 
388 11.999 13.366 79.214 18.917 5.7086 99.774 
389 26.536 41.073 100.00 34.678 15.648 171.83 
390 56.977 69.943 100.00 49.802 42.647 171.14 
391 13.126 11.735 100.00 32.680 10.502 172.62 
392 51.643 100.00 85.500 55.898 83.382 131.49 
393 53.388 100.00 13.698 34.918 78.099 14.513 
394 29.105 84.570 60.605 28.364 52.528 57.532 
395 34.048 49.108 46.295 9.5711 11.828 23.732 
396 0.0000 52.827 88.818 28.796 20.291 129.35 
397 70.149 14.577 29.504 15.257 8.0748 4.9242 
398 36.403 68.651 73.121 26.545 32.066 82.203 
399 29.143 100.00 42.740 32.221 76.538 30.188 
400 51.319 35.519 45.793 11.021 7.4958 21.613 
401 27.057 32.120 86.530 24.490 9.4090 123.01 
402 59.262 28.988 86.844 32.640 12.523 126.54 
403 14.923 31.785 75.040 16.545 7.4275 82.199 
404 10.143 74.057 89.642 37.824 39.620 142.21 
405 30.561 45.554 13.575 4.4749 8.5108 2.6446 
406 8.0083 62.222 75.861 24.303 25.202 91.879 
407 74.656 36.443 16.206 18.261 12.226 1.0516 
408 86.644 53.717 59.630 38.335 28.138 45.738 
409 55.452 49.877 67.673 23.287 17.256 68.046 
410 89.467 56.706 77.742 50.405 34.435 94.514 
411 69.500 49.601 86.098 40.181 22.700 125.06 
412 10.943 90.213 0.0000 22.105 58.784 10.330 
413 55.108 57.247 45.768 17.164 20.691 24.110 
414 72.075 86.353 25.502 35.397 58.563 12.839 
415 19.746 13.008 12.523 1.0393 1.2243 1.2081 
416 52.864 29.073 56.850 14.230 7.1534 39.811 
417 87.430 74.310 12.569 38.305 46.926 5.0182 
418 8.0460 52.901 11.270 5.3573 12.851 3.2134 
419 65.067 44.887 74.222 29.267 17.381 84.295 
420 11.017 92.681 56.995 30.888 64.240 51.103 
421 86.006 71.930 33.334 37.718 43.026 12.476 
422 91.861 6.7508 91.614 54.812 21.865 142.58 
423 86.370 85.258 31.985 45.047 63.066 14.557 
424 65.599 86.229 77.230 47.637 63.005 97.236 
425 88.040 11.013 8.1453 25.487 13.487 -0.47754 
426 10.044 77.857 37.213 16.922 39.617 18.252 
427 10.901 91.439 77.961 40.180 65.823 105.40 
428 28.748 65.221 85.677 32.416 30.461 126.83 
429 34.798 71.940 41.020 16.536 33.153 21.553 
430 36.734 86.865 88.491 45.400 61.314 136.84 
431 43.370 72.796 100.00 47.909 42.638 180.37 
432 9.3959 77.722 8.2113 14.890 38.727 7.6654 
433 88.206 88.711 50.734 51.808 67.534 37.822 
434 58.689 71.784 0.0000 20.100 34.279 6.1464 
435 100.00 11.567 51.346 41.566 20.082 27.377 
436 29.918 35.396 48.915 7.2676 5.5651 26.103 
437 100.00 49.412 12.894 39.778 27.863 0.25628 
438 40.039 31.011 9.6841 3.9025 3.8360 1.3384 
439 25.133 8.0553 92.623 28.428 8.5952 149.07 
440 28.020 7.6428 38.183 3.5491 2.0682 12.235 
441 0.0000 27.183 58.227 8.8743 4.1150 42.917 
442 32.794 21.014 88.755 26.041 8.5446 131.69 
443 9.1895 89.965 25.235 22.364 58.690 12.538 
444 57.277 0.0000 28.932 9.1120 5.0537 5.1904 
445 92.330 27.369 77.038 45.996 20.367 92.554 
446 42.175 88.107 27.807 24.178 52.776 16.805 
447 12.107 8.1401 53.490 6.7473 2.8972 32.548 
448 29.680 40.492 32.609 4.5996 6.3823 8.5821 
449 59.890 70.479 60.491 28.910 35.181 53.733 
450 48.406 14.256 34.591 6.8546 3.8021 9.1116 
451 12.538 52.343 100.00 36.470 22.580 171.18 
452 49.277 46.590 42.251 11.424 11.997 18.049 
453 75.495 63.243 29.105 25.861 29.928 8.0313 
454 74.223 59.099 0.0000 23.213 25.381 3.0960 
455 41.558 0.0000 70.006 16.482 5.7986 71.721 
456 78.579 91.022 40.684 43.785 66.585 27.693 
457 22.840 54.250 71.043 19.100 17.806 74.859 
458 8.7645 41.214 45.166 6.2623 7.0210 21.101 
459 87.537 44.187 53.581 34.175 21.605 33.483 
460 14.777 53.804 49.955 10.320 14.795 29.042 
461 10.947 66.170 31.856 10.808 25.203 11.151 
462 85.673 49.966 35.321 29.777 22.732 9.8904 
463 10.732 21.236 25.746 1.4727 1.4030 3.7633 
464 10.809 89.492 37.535 23.903 58.336 22.320 
465 70.696 30.808 60.834 23.423 11.905 45.431 
466 29.083 55.393 38.265 8.7431 15.523 14.590 
467 50.623 88.949 47.021 30.776 60.357 32.736 
468 90.529 59.127 13.743 34.008 31.223 2.5755 
469 47.950 39.136 88.378 30.770 13.838 133.05 
470 75.337 49.753 13.802 21.035 18.888 1.6556 
471 31.159 24.917 25.741 2.5373 2.2675 3.7768 
472 8.8227 8.7107 8.3200 0.97061 1.1979 1.2443 
473 86.558 28.147 32.417 26.686 14.488 5.5554 
474 44.691 53.632 87.836 31.603 22.233 124.59 
475 71.727 24.922 35.806 17.018 9.2553 9.0080 
476 64.407 76.064 41.148 27.073 41.799 21.441 
477 29.869 72.605 17.293 13.216 32.010 7.0387 
478 43.584 56.937 32.039 10.726 17.626 9.7013 
479 44.538 25.483 91.536 30.800 10.309 144.01 
480 75.260 60.355 60.648 32.930 29.305 51.169 
481 13.065 89.957 91.663 48.290 65.352 154.56 
482 24.778 91.788 88.299 47.429 67.010 142.70 
483 50.952 67.856 42.932 18.502 29.655 21.306 
484 37.533 25.407 46.659 6.9920 3.7079 22.518 
485 7.1271 39.614 77.067 19.223 9.9970 92.734 
486 72.283 75.068 14.168 28.248 42.859 5.9611 
487 58.115 35.167 21.427 9.7714 7.6595 2.3660 
488 52.584 83.976 23.343 24.447 49.576 11.599 
489 43.491 45.854 64.381 17.076 12.853 57.971 
490 50.762 37.672 34.717 8.7735 7.5652 9.4203 
491 27.798 12.441 69.405 14.072 4.7554 69.987 
492 10.610 71.216 48.560 16.464 31.475 31.474 
493 76.326 95.012 10.539 43.155 74.272 13.390 
494 90.582 92.887 10.118 50.975 74.562 10.568 
495 24.988 93.839 8.5597 24.594 61.821 14.234 
496 32.135 13.441 24.043 2.3662 1.7472 3.2928 
497 72.301 37.281 27.571 17.389 11.902 4.2945 
498 12.771 20.309 70.207 13.919 4.5023 72.412 
499 43.590 9.4035 92.769 31.178 9.8361 149.19 
500 53.846 9.8318 47.222 11.029 5.3169 22.872 
501 77.882 91.267 78.463 58.842 74.622 104.13 
502 83.268 74.819 75.343 51.461 51.006 92.137 
503 90.621 25.054 63.358 38.402 17.727 53.418 
504 76.768 42.206 52.104 26.043 16.710 31.251 
505 14.585 20.051 49.213 5.4674 2.6780 25.530 
506 43.903 27.395 37.728 6.4474 4.2389 11.773 
507 58.891 91.808 56.297 38.187 66.420 49.857 
508 24.027 44.532 57.258 10.847 9.9173 41.192 
509 8.3768 44.010 91.924 29.772 14.240 147.07 
510 67.249 58.277 47.889 23.200 24.325 26.871 
511 37.006 92.655 67.799 36.675 68.054 71.135 
512 78.160 13.519 78.144 36.121 15.171 92.422 
513 88.113 9.8468 43.815 29.636 14.586 17.159 
514 59.350 93.159 25.814 32.494 65.724 13.483 
515 23.775 65.127 33.833 10.958 23.970 12.657 
516 87.693 56.006 46.845 35.445 28.659 23.155 
517 21.152 87.748 28.603 21.500 54.617 14.878 
518 61.636 14.054 14.512 10.086 5.6898 0.89920 
519 77.733 69.072 41.223 31.399 37.222 18.870 
520 90.261 92.011 90.954 75.249 78.177 148.71 
521 13.772 71.403 75.890 28.333 35.614 95.233 
522 53.721 50.386 9.8361 10.751 13.946 2.6158 
523 75.444 5.4570 58.690 25.215 11.438 43.204 
524 7.0128 77.711 58.477 22.734 40.579 51.089 
525 47.939 10.165 73.026 19.219 7.2033 77.332 
526 22.783 88.833 72.925 35.501 60.733 85.494 
527 24.091 55.486 88.854 29.846 22.392 130.05 
528 12.477 32.865 20.118 1.8538 3.1924 2.3330 
529 47.368 57.209 74.335 26.219 22.589 88.066 
530 63.185 57.113 76.614 33.012 25.737 93.110 
531 46.302 90.964 95.172 55.085 65.876 169.77 
532 50.590 62.862 58.311 21.393 26.014 47.090 
533 47.277 79.232 74.869 34.854 45.659 90.508 
534 74.136 6.1675 91.716 42.776 16.091 141.77 
535 59.516 91.269 7.3899 31.184 63.238 11.134 
536 61.217 76.791 72.893 37.346 45.590 80.305 
537 0.0000 57.877 20.595 6.9762 16.868 4.8614 
538 75.107 38.980 93.793 46.877 20.948 152.50 
539 42.602 76.950 5.0801 17.380 39.104 6.6909 
540 26.741 72.179 68.119 24.351 36.041 68.013 
541 0.0000 28.267 41.975 4.0758 3.0038 16.277 
542 18.636 40.482 68.125 14.704 8.9264 67.381 
543 67.589 69.681 24.214 23.674 34.400 7.5020 
544 8.7341 75.796 20.861 14.364 36.718 8.4293 
545 63.004 53.490 36.309 17.090 18.483 12.017 
546 69.099 25.296 74.656 29.104 12.154 84.021 
547 27.840 10.177 57.202 8.7316 3.4664 40.545 
548 5.6775 42.254 9.6297 3.0096 6.4981 2.3012 
549 77.251 87.313 53.696 44.460 62.952 44.658 
550 8.4601 44.703 57.001 10.520 9.6882 41.145 
551 69.011 51.799 59.003 26.029 20.806 45.906 
552 9.3190 91.106 11.835 22.879 60.300 11.728 
553 29.530 37.661 78.042 19.970 9.5934 94.416 
554 94.852 79.948 91.003 71.379 66.119 134.54 
555 59.749 91.575 91.213 56.832 73.328 144.28 
556 92.570 91.748 23.511 52.241 72.879 13.948 
557 6.7037 9.7437 87.706 24.379 7.1474 129.37 
558 61.925 29.660 44.425 13.991 7.8763 18.817 
559 41.451 47.191 76.725 23.245 14.709 93.809 
560 73.435 70.913 80.307 46.326 43.656 107.44 
561 94.472 24.256 40.185 33.963 17.277 12.334 
562 92.504 75.881 63.903 53.275 54.023 60.263 
563 88.418 36.730 88.226 51.708 23.247 129.61 
564 27.302 37.046 6.3946 2.6043 4.4572 1.6521 
565 26.864 60.485 63.775 18.043 21.995 58.804 
566 72.662 28.072 89.941 41.393 16.468 136.95 
567 46.611 21.957 72.514 19.180 6.9336 79.174 
568 26.652 23.123 11.056 1.5569 1.6297 1.3744 
569 57.166 6.9740 91.727 34.529 11.824 143.39 
570 18.192 54.071 20.613 5.8104 13.643 4.2914 
571 93.026 46.855 67.692 45.267 26.502 65.229 
572 77.854 8.0627 39.878 21.400 10.882 12.875 
573 22.599 92.899 60.455 32.182 61.009 61.788 
574 74.961 74.054 65.253 40.066 43.918 66.774 
575 41.713 5.7468 25.261 4.0755 2.6720 3.3547 
576 61.788 67.651 48.104 24.183 32.412 28.589 
577 29.358 79.710 92.006 43.427 49.055 153.19 
578 48.774 89.066 72.593 39.790 62.858 84.637 
579 21.601 10.449 29.369 1.8991 1.4155 5.5799 
580 29.207 23.023 58.125 9.2925 3.7791 42.426 
581 75.635 45.915 42.096 23.108 17.290 16.739 
582 76.930 25.618 7.4084 18.461 10.273 0.16801 
583 22.807 89.655 40.559 24.555 57.786 25.789 
584 60.651 55.043 91.200 39.753 27.231 135.68 
585 89.985 68.597 21.396 38.091 40.850 4.9721 
586 66.387 53.290 24.425 17.276 18.889 4.7495 
587 41.826 76.201 51.444 22.553 40.287 36.524 
588 44.475 21.396 56.042 11.075 4.8297 37.929 
589 34.703 49.067 59.091 13.763 12.967 46.913 
590 99.112 63.852 75.720 57.798 43.367 88.216 
591 91.720 58.345 89.450 59.979 38.783 135.41 
592 74.576 16.624 49.571 21.507 10.552 25.031 
593 69.542 64.502 8.6356 22.580 29.865 4.0414 
594 28.947 77.066 80.294 34.244 44.367 109.86 
595 54.296 60.752 34.789 15.544 22.784 12.229 
596 20.724 19.469 88.534 24.087 8.2112 124.94 
597 95.884 91.598 40.054 57.033 76.184 22.021 
598 91.632 69.189 45.938 42.976 43.492 23.724 
599 40.573 63.702 19.761 11.533 23.507 5.7738 
600 8.8459 32.956 6.0575 1.6537 3.0972 1.6118 
601 74.038 35.613 71.709 30.932 15.375 74.626 
602 40.657 65.311 51.262 17.388 26.407 34.406 
603 53.787 74.535 87.389 42.763 45.075 131.42 
604 7.0791 61.376 45.152 11.572 21.120 23.885 
605 22.247 70.775 44.763 15.357 30.571 25.916 
606 26.485 19.107 37.490 3.2803 1.9466 11.550 
607 40.257 9.8927 40.823 5.8453 3.1279 14.552 
608 90.736 89.741 63.982 59.141 72.894 64.581 
609 11.119 49.441 71.361 18.000 14.079 77.071 
610 73.563 68.426 93.291 54.077 43.017 153.17 
611 97.991 56.483 35.675 41.497 32.160 10.641 
612 70.850 96.981 44.129 44.041 75.228 34.332 
613 54.060 38.996 79.081 26.134 13.361 96.502 
614 0.0000 76.734 88.366 38.279 45.500 135.60 
615 92.815 78.483 25.094 45.224 54.899 8.3479 
616 53.538 61.700 10.564 13.969 22.621 4.1517 
617 54.473 2.4873 9.4608 7.2536 4.2719 0.90565 
618 22.842 1.5753 60.192 9.3923 3.7444 45.764 
619 90.202 22.326 4.4666 27.952 14.703 -0.81383 
620 19.781 55.213 8.0885 6.0433 14.503 3.4441 
621 78.737 45.208 79.159 39.698 22.445 95.218 
622 11.537 45.010 22.724 3.7550 7.9607 4.0187 
623 89.830 20.200 46.551 30.866 15.211 21.167 
624 88.057 48.786 100.00 62.098 31.018 177.49 
625 40.551 38.746 17.885 4.9628 6.3351 2.0814 
626 64.517 27.927 26.326 12.442 7.5180 3.5901 
627 23.870 32.080 96.648 31.658 11.261 163.01 
628 71.475 36.222 39.391 18.371 11.649 13.072 
629 42.621 91.486 4.2379 25.864 60.237 13.090 
630 91.486 4.2562 18.148 29.115 15.169 -0.59923 
631 10.925 97.313 45.807 30.497 72.588 33.555 
632 29.951 90.271 20.391 23.402 59.253 12.734 
633 44.187 5.4037 59.945 12.486 5.1176 45.704 
634 97.494 32.807 58.304 42.553 21.514 41.315 
635 77.920 63.069 49.866 31.369 31.967 30.570 
636 2.8694 92.261 49.168 28.335 63.489 38.362 
637 7.5969 7.7762 43.061 3.9509 2.1435 17.371 
638 60.009 23.697 5.0796 9.3723 5.6030 0.88709 
639 52.942 40.685 59.452 16.777 10.909 46.351 
640 31.592 84.070 10.709 19.293 47.459 10.483 
641 92.018 37.969 38.210 32.790 19.238 10.998 
642 96.263 60.857 53.704 45.248 37.050 33.738 
643 89.882 2.8714 51.981 32.605 15.728 28.990 
644 17.475 26.905 33.484 2.5461 2.3188 8.2090 
645 77.036 37.333 4.5443 19.273 12.967 0.87342 
646 82.765 74.228 3.3521 34.196 45.059 5.3932 
647 1.3111 28.012 84.907 22.906 7.7752 119.69 
648 29.125 61.952 47.271 12.906 21.809 26.709 
649 40.043 9.6579 9.7342 3.2297 2.3345 1.0166 
650 49.720 96.187 63.961 40.948 70.457 72.074 
651 20.834 76.926 56.803 21.887 39.101 48.295 
652 75.780 96.231 89.037 66.706 78.657 148.24 
653 39.437 23.958 3.5808 3.2955 2.6083 1.1171 
654 25.307 41.351 22.542 3.4549 6.1664 3.7531 
655 6.6334 66.959 65.665 20.599 29.270 62.188 
656 25.647 6.6476 17.480 1.4063 1.4262 1.5379 
657 8.7436 20.389 94.432 28.981 8.8740 154.04 
658 60.184 7.0587 22.951 9.8441 5.5723 2.1567 
659 7.8422 8.1166 31.005 1.9323 1.4039 6.6926 
660 21.935 11.085 46.954 5.0501 2.4024 22.747 
661 57.095 27.542 96.369 38.343 13.617 162.96 
662 78.767 4.7580 8.7145 19.368 10.288 0.16270 
663 46.546 23.753 13.791 4.9916 3.3826 1.2701 
664 2.6231 93.569 91.288 50.391 71.471 153.72 
665 76.850 78.338 90.328 57.177 54.449 141.42 
666 50.318 94.019 35.975 31.351 66.022 23.144 
667 81.191 24.751 79.395 39.889 16.675 99.615 
668 90.374 47.501 23.820 31.491 22.666 2.7115 
669 34.217 23.005 76.709 19.009 6.2661 92.168 
670 63.121 4.4246 73.772 25.117 10.123 79.153 
671 91.614 10.061 63.312 39.052 17.771 52.637 
672 65.442 39.764 51.612 18.871 12.136 30.775 
673 32.019 91.127 79.150 41.777 62.389 112.49 
674 76.504 59.192 79.980 42.860 32.038 101.54 
675 66.236 79.252 58.026 35.050 49.564 47.729 
676 53.094 26.471 31.387 8.0852 5.0702 6.6088 
677 87.618 96.281 74.109 65.310 85.782 88.454 
678 70.441 15.926 69.011 26.892 11.172 67.961 
679 60.489 18.359 90.956 35.448 12.287 141.17 
680 40.894 96.328 51.369 34.136 72.043 43.647 
681 47.348 64.774 97.032 43.809 33.091 170.68 
682 39.744 48.901 37.808 8.6564 11.926 13.350 
683 89.360 35.876 11.004 28.331 16.922 -0.53881 
684 60.815 69.647 13.242 20.157 33.246 5.0523 
685 35.196 91.335 37.336 26.141 61.022 21.481 
686 99.556 40.343 74.995 52.792 27.677 81.238 
687 62.967 79.317 29.886 26.842 45.844 13.032 
688 63.840 33.046 11.218 11.852 8.1095 0.91557 
689 70.379 2.6918 44.405 17.834 8.8955 18.177 
690 3.9868 19.907 8.1800 0.97061 1.1979 1.2443 
691 10.346 77.677 99.692 47.361 48.621 183.22 
692 89.188 77.631 52.499 46.954 53.980 35.978 
693 4.6387 38.337 26.745 2.8519 4.8734 4.9635 
694 29.291 63.861 24.713 9.8703 22.721 6.7335 
695 21.711 70.920 9.0623 11.809 30.105 6.0572 
696 40.377 44.881 8.6940 5.7543 8.7126 2.1393 
697 37.959 65.323 8.5944 11.364 24.606 5.1893 
698 22.976 30.076 24.016 1.9484 2.5620 3.2272 
699 18.859 36.325 52.585 7.7027 5.6288 32.352 
700 7.3913 20.142 60.131 9.2122 3.4871 46.247 
701 95.262 45.465 90.360 60.121 30.595 137.87 
702 61.828 76.885 94.445 51.142 51.329 153.15 
703 92.386 46.493 45.219 36.397 24.056 19.950 
704 80.207 93.529 27.309 44.887 71.005 16.708 
705 98.216 18.550 27.031 35.268 18.060 1.9981 
706 89.513 11.561 32.463 28.031 14.484 5.7070 
707 42.186 29.681 66.171 15.068 6.5340 61.401 
708 6.5732 34.823 64.002 11.678 6.2899 55.596 
709 98.626 89.753 55.494 60.903 75.344 48.119 
710 63.906 43.787 29.320 14.075 12.347 6.1592 
711 82.729 29.272 43.957 25.509 13.542 17.342 
712 79.871 27.340 56.645 27.705 13.549 38.436 
713 26.363 15.765 4.5616 1.3143 1.3302 1.0633 
714 8.0488 7.7297 70.514 13.893 4.6802 72.038 
715 20.053 25.216 64.684 11.434 4.5535 56.954 
716 73.931 90.336 96.302 67.001 74.374 167.09 
717 23.256 63.767 95.312 37.865 29.718 162.44 
718 22.196 35.785 41.266 4.7518 4.7369 15.906 
719 65.911 53.993 8.5531 16.876 19.177 2.7506 
720 67.939 8.5794 6.0146 13.114 7.2682 0.18226 
721 37.629 78.080 63.392 26.725 43.156 60.663 
722 20.733 75.630 25.615 14.482 36.158 9.8343 
723 45.073 80.818 91.064 44.144 54.261 135.72 
724 6.7780 64.165 91.311 33.354 31.688 134.49 
725 98.294 40.618 26.117 36.634 22.337 2.1768 
726 8.5693 34.854 35.538 3.3441 3.9047 10.118 
727 80.446 5.0985 27.676 20.797 10.826 3.3240 
728 8.2875 80.931 71.429 29.348 46.346 78.110 
729 89.947 97.546 43.758 57.650 84.269 32.501 
730 59.723 52.693 54.206 19.772 18.312 36.414 
731 81.319 9.7810 68.440 33.505 14.524 65.408 
732 35.318 53.258 94.536 35.163 22.042 156.82 
733 44.851 66.620 81.077 32.515 32.901 108.65 
734 5.8596 58.940 56.397 13.889 19.046 41.961 
735 54.903 47.456 20.902 10.756 12.493 3.4550 
736 89.801 1.3942 75.081 42.446 18.432 84.150 
737 95.979 3.6151 37.017 33.988 17.214 9.0148 
738 81.458 42.048 25.062 23.444 16.446 3.4533 
739 14.544 37.051 86.711 24.806 10.331 125.72 
740 91.614 19.078 97.673 59.842 23.951 164.68 
741 78.965 88.736 67.629 52.403 68.037 74.740 
742 50.904 81.447 11.655 22.155 46.882 8.5525 
743 39.319 65.662 90.514 35.613 33.600 131.58 
744 42.124 42.111 49.268 10.322 9.0139 27.365 
745 61.209 7.5458 62.926 19.470 8.1454 52.993 
746 98.487 74.292 12.060 47.521 51.251 4.1811 
747 97.429 23.948 90.842 58.174 24.433 138.40 
748 58.892 68.681 78.879 36.543 36.672 100.22 
749 38.640 32.955 29.909 4.6057 4.3183 6.1474 
750 76.704 57.311 91.481 49.747 32.363 144.19 
751 6.6249 77.818 81.336 34.331 45.140 112.17 
752 43.595 92.741 84.230 48.137 69.176 127.83 
753 72.159 43.882 63.859 27.797 17.115 56.155 
754 63.246 25.329 53.702 16.937 8.1726 32.819 
755 15.756 62.191 67.264 19.715 23.626 67.119 
756 86.006 33.385 67.657 37.832 18.009 65.426 
757 34.613 57.959 70.733 21.717 21.456 77.533 
758 6.4379 22.095 36.806 2.8579 1.8688 11.165 
759 75.143 95.571 60.598 50.595 74.100 63.688 
760 1.7245 23.112 21.413 1.2759 1.5395 2.3490 
761 28.234 50.802 79.808 23.241 17.137 99.381 
762 29.272 91.802 51.175 29.218 62.180 41.083 
763 92.635 83.097 42.051 47.447 60.723 23.276 
764 91.493 63.720 65.214 47.308 39.416 59.646 
765 9.2535 28.526 52.807 7.0429 3.7989 32.495 
766 50.113 57.186 0.48026 11.493 18.480 3.3938 
767 9.9062 63.009 9.0413 8.5360 21.553 4.4663 
768 57.466 61.151 68.711 27.840 27.100 71.849 
769 43.145 55.228 52.257 14.672 17.755 33.821 
770 30.914 37.265 59.653 11.163 7.0567 46.100 
771 20.231 29.994 10.728 1.5088 2.3990 1.5018 
772 39.864 98.954 27.668 30.978 72.921 19.823 
773 14.472 2.3253 24.516 1.3121 1.2806 3.3249 
774 2.8186 9.2997 57.951 8.4474 3.1446 42.213 
775 67.577 22.482 15.601 13.069 7.3112 0.72924 
776 80.758 55.994 22.708 26.122 25.125 3.7557 
777 52.233 10.143 1.3260 6.4055 3.8848 0.82915 
778 74.771 4.4923 79.626 34.816 14.074 97.359 
779 67.067 90.435 15.557 34.585 64.044 11.029 
780 28.243 80.015 49.904 21.683 43.315 35.873 
781 33.611 79.775 29.937 18.307 42.757 13.224 
782 74.620 56.897 38.563 24.706 24.591 13.982 
783 44.473 74.131 27.018 17.175 35.904 10.001 
784 60.185 94.850 77.038 49.891 76.000 98.239 
785 51.880 30.940 10.104 6.9409 5.3333 1.2234 
786 57.478 21.827 64.387 18.613 7.7244 56.008 
787 57.866 20.586 39.368 10.864 5.7213 12.922 
788 51.219 46.970 94.431 37.404 19.608 155.32 
789 10.683 1.4497 94.277 29.125 8.6142 155.26 
790 37.773 20.762 99.540 34.985 10.523 176.65 
791 68.115 88.293 36.493 34.741 59.030 21.417 
792 20.523 46.000 91.759 29.864 15.591 144.30 
793 98.430 9.6393 9.2699 34.733 17.866 -1.6337 
794 79.810 73.284 23.355 32.951 42.979 6.9749 
795 51.336 56.269 24.230 12.030 18.244 5.3203 
796 28.031 6.5195 7.4562 1.4911 1.3558 1.2738 
797 21.242 72.329 89.598 37.459 38.213 142.86 
798 37.757 51.298 20.928 7.0002 12.544 4.2873 
799 26.434 90.497 98.976 54.488 66.468 185.23 
800 37.753 36.840 91.750 30.138 12.212 144.22 
801 8.5912 49.989 39.356 6.7945 11.227 15.157 
802 98.443 26.409 10.967 35.038 18.687 -1.0853 
803 90.287 15.436 84.874 49.385 20.300 117.79 
804 93.413 17.834 56.598 37.707 17.740 37.438 
805 73.613 19.391 97.482 47.279 17.258 167.35 
806 37.318 64.458 61.843 19.980 26.487 53.942 
807 89.960 97.075 56.040 60.363 84.499 52.192 
808 2.4589 22.217 72.748 14.989 5.1865 77.551 
809 48.994 40.475 24.586 7.5737 7.9524 3.9800 
810 62.059 9.8853 82.020 29.572 11.101 105.97 
811 75.771 84.317 6.6619 34.850 56.831 8.7054 
812 40.875 3.2851 80.103 22.039 7.2680 103.22 
813 9.4980 49.701 83.183 24.991 16.203 114.74 
814 90.420 68.493 79.654 55.998 46.164 100.54 
815 73.833 77.097 47.918 34.162 46.642 31.274 
816 82.449 51.057 69.546 38.659 25.314 72.387 
817 84.116 57.343 4.7211 29.180 27.236 2.1634 
818 66.889 35.914 82.846 33.971 14.861 112.79 
819 92.332 82.483 7.6072 46.755 60.968 6.6029 
820 20.677 7.5149 79.688 19.446 5.7359 102.67 
821 53.776 75.323 35.378 21.373 38.907 15.079 
822 64.467 8.1923 51.832 16.758 7.7829 29.471 
823 95.796 74.681 38.103 47.448 51.142 16.264 
824 54.725 37.086 68.182 20.494 10.756 66.238 
825 8.9149 54.774 28.450 6.4704 14.218 7.3856 
826 61.418 78.763 6.0619 24.816 45.252 7.0135 
827 80.597 13.612 90.820 46.068 17.674 138.74 
828 13.303 88.858 66.320 32.280 56.070 74.383 
829 94.183 77.797 79.642 62.683 56.695 99.388 
830 79.815 27.129 97.365 49.834 21.013 155.75 
831 72.351 8.3066 20.355 15.531 8.2956 1.0860 
832 94.846 92.261 80.005 71.960 79.612 110.10 
833 57.451 8.3607 35.354 9.8797 5.1488 9.0877 
834 91.118 70.372 92.723 65.075 48.707 153.23 
835 81.226 19.828 27.941 21.795 11.417 3.2370 
836 48.417 27.425 82.194 25.448 9.2162 110.27 
END_DATA
CAL    

DESCRIPTOR "Argyll Device Calibration State"
ORIGINATOR "Argyll dispread"
CREATED "Thu Mar  8 07:58:55 2012"
KEYWORD "DEVICE_CLASS"
DEVICE_CLASS "DISPLAY"
KEYWORD "COLOR_REP"
COLOR_REP "RGB"

KEYWORD "RGB_I"
NUMBER_OF_FIELDS 4
BEGIN_DATA_FORMAT
RGB_I RGB_R RGB_G RGB_B 
END_DATA_FORMAT

NUMBER_OF_SETS 256
BEGIN_DATA
0.0000 0.0000 0.0000 0.0000 
3.9216e-03 3.9063e-03 3.9063e-03 3.9063e-03 
7.8431e-03 7.8126e-03 7.8126e-03 7.8126e-03 
0.011765 0.011719 0.011719 0.011719 
0.015686 0.015625 0.015625 0.015625 
0.019608 0.019532 0.019532 0.019532 
0.023529 0.023438 0.023438 0.023438 
0.027451 0.027344 0.027344 0.027344 
0.031373 0.031250 0.031250 0.031250 
0.035294 0.035157 0.035157 0.035157 
0.039216 0.039063 0.039063 0.039063 
0.043137 0.042969 0.042969 0.042969 
0.047059 0.046876 0.046876 0.046876 
0.050980 0.050782 0.050782 0.050782 
0.054902 0.054688 0.054688 0.054688 
0.058824 0.058595 0.058595 0.058595 
0.062745 0.062501 0.062501 0.062501 
0.066667 0.066407 0.066407 0.066407 
0.070588 0.070314 0.070314 0.070314 
0.074510 0.074220 0.074220 0.074220 
0.078431 0.078126 0.078126 0.078126 
0.082353 0.082033 0.082033 0.082033 
0.086275 0.085939 0.085939 0.085939 
0.090196 0.089845 0.089845 0.089845 
0.094118 0.093751 0.093751 0.093751 
0.098039 0.097658 0.097658 0.097658 
0.10196 0.10156 0.10156 0.10156 
0.10588 0.10547 0.10547 0.10547 
0.10980 0.10938 0.10938 0.10938 
0.11373 0.11328 0.11328 0.11328 
0.11765 0.11719 0.11719 0.11719 
0.12157 0.12110 0.12110 0.12110 
0.12549 0.12500 0.12500 0.12500 
0.12941 0.12891 0.12891 0.12891 
0.13333 0.13281 0.13281 0.13281 
0.13725 0.13672 0.13672 0.13672 
0.14118 0.14063 0.14063 0.14063 
0.14510 0.14453 0.14453 0.14453 
0.14902 0.14844 0.14844 0.14844 
0.15294 0.15235 0.15235 0.15235 
0.15686 0.15625 0.15625 0.15625 
0.16078 0.16016 0.16016 0.16016 
0.16471 0.16407 0.16407 0.16407 
0.16863 0.16797 0.16797 0.16797 
0.17255 0.17188 0.17188 0.17188 
0.17647 0.17578 0.17578 0.17578 
0.18039 0.17969 0.17969 0.17969 
0.18431 0.18360 0.18360 0.18360 
0.18824 0.18750 0.18750 0.18750 
0.19216 0.19141 0.19141 0.19141 
0.19608 0.19532 0.19532 0.19532 
0.20000 0.19922 0.19922 0.19922 
0.20392 0.20313 0.20313 0.20313 
0.20784 0.20703 0.20703 0.20703 
0.21176 0.21094 0.21094 0.21094 
0.21569 0.21485 0.21485 0.21485 
0.21961 0.21875 0.21875 0.21875 
0.22353 0.22266 0.22266 0.22266 
0.22745 0.22657 0.22657 0.22657 
0.23137 0.23047 0.23047 0.23047 
0.23529 0.23438 0.23438 0.23438 
0.23922 0.23828 0.23828 0.23828 
0.24314 0.24219 0.24219 0.24219 
0.24706 0.24610 0.24610 0.24610 
0.25098 0.25000 0.25000 0.25000 
0.25490 0.25391 0.25391 0.25391 
0.25882 0.25782 0.25782 0.25782 
0.26275 0.26172 0.26172 0.26172 
0.26667 0.26563 0.26563 0.26563 
0.27059 0.26954 0.26954 0.26954 
0.27451 0.27344 0.27344 0.27344 
0.27843 0.27735 0.27735 0.27735 
0.28235 0.28125 0.28125 0.28125 
0.28627 0.28516 0.28516 0.28516 
0.29020 0.28907 0.28907 0.28907 
0.29412 0.29297 0.29297 0.29297 
0.29804 0.29688 0.29688 0.29688 
0.30196 0.30079 0.30079 0.30079 
0.30588 0.30469 0.30469 0.30469 
0.30980 0.30860 0.30860 0.30860 
0.31373 0.31250 0.31250 0.31250 
0.31765 0.31641 0.31641 0.31641 
0.32157 0.32032 0.32032 0.32032 
0.32549 0.32422 0.32422 0.32422 
0.32941 0.32813 0.32813 0.32813 
0.33333 0.33204 0.33204 0.33204 
0.33725 0.33594 0.33594 0.33594 
0.34118 0.33985 0.33985 0.33985 
0.34510 0.34376 0.34376 0.34376 
0.34902 0.34766 0.34766 0.34766 
0.35294 0.35157 0.35157 0.35157 
0.35686 0.35547 0.35547 0.35547 
0.36078 0.35938 0.35938 0.35938 
0.36471 0.36329 0.36329 0.36329 
0.36863 0.36719 0.36719 0.36719 
0.37255 0.37110 0.37110 0.37110 
0.37647 0.37501 0.37501 0.37501 
0.38039 0.37891 0.37891 0.37891 
0.38431 0.38282 0.38282 0.38282 
0.38824 0.38672 0.38672 0.38672 
0.39216 0.39063 0.39063 0.39063 
0.39608 0.39454 0.39454 0.39454 
0.40000 0.39844 0.39844 0.39844 
0.40392 0.40235 0.40235 0.40235 
0.40784 0.40626 0.40626 0.40626 
0.41176 0.41016 0.41016 0.41016 
0.41569 0.41407 0.41407 0.41407 
0.41961 0.41798 0.41798 0.41798 
0.42353 0.42188 0.42188 0.42188 
0.42745 0.42579 0.42579 0.42579 
0.43137 0.42969 0.42969 0.42969 
0.43529 0.43360 0.43360 0.43360 
0.43922 0.43751 0.43751 0.43751 
0.44314 0.44141 0.44141 0.44141 
0.44706 0.44532 0.44532 0.44532 
0.45098 0.44923 0.44923 0.44923 
0.45490 0.45313 0.45313 0.45313 
0.45882 0.45704 0.45704 0.45704 
0.46275 0.46094 0.46094 0.46094 
0.46667 0.46485 0.46485 0.46485 
0.47059 0.46876 0.46876 0.46876 
0.47451 0.47266 0.47266 0.47266 
0.47843 0.47657 0.47657 0.47657 
0.48235 0.48048 0.48048 0.48048 
0.48627 0.48438 0.48438 0.48438 
0.49020 0.48829 0.48829 0.48829 
0.49412 0.49220 0.49220 0.49220 
0.49804 0.49610 0.49610 0.49610 
0.50196 0.50001 0.50001 0.50001 
0.50588 0.50391 0.50391 0.50391 
0.50980 0.50782 0.50782 0.50782 
0.51373 0.51173 0.51173 0.51173 
0.51765 0.51563 0.51563 0.51563 
0.52157 0.51954 0.51954 0.51954 
0.52549 0.52345 0.52345 0.52345 
0.52941 0.52735 0.52735 0.52735 
0.53333 0.53126 0.53126 0.53126 
0.53725 0.53516 0.53516 0.53516 
0.54118 0.53907 0.53907 0.53907 
0.54510 0.54298 0.54298 0.54298 
0.54902 0.54688 0.54688 0.54688 
0.55294 0.55079 0.55079 0.55079 
0.55686 0.55470 0.55470 0.55470 
0.56078 0.55860 0.55860 0.55860 
0.56471 0.56251 0.56251 0.56251 
0.56863 0.56641 0.56641 0.56641 
0.57255 0.57032 0.57032 0.57032 
0.57647 0.57423 0.57423 0.57423 
0.58039 0.57813 0.57813 0.57813 
0.58431 0.58204 0.58204 0.58204 
0.58824 0.58595 0.58595 0.58595 
0.59216 0.58985 0.58985 0.58985 
0.59608 0.59376 0.59376 0.59376 
0.60000 0.59767 0.59767 0.59767 
0.60392 0.60157 0.60157 0.60157 
0.60784 0.60548 0.60548 0.60548 
0.61176 0.60938 0.60938 0.60938 
0.61569 0.61329 0.61329 0.61329 
0.61961 0.61720 0.61720 0.61720 
0.62353 0.62110 0.62110 0.62110 
0.62745 0.62501 0.62501 0.62501 
0.63137 0.62892 0.62892 0.62892 
0.63529 0.63282 0.63282 0.63282 
0.63922 0.63673 0.63673 0.63673 
0.64314 0.64063 0.64063 0.64063 
0.64706 0.64454 0.64454 0.64454 
0.65098 0.64845 0.64845 0.64845 
0.65490 0.65235 0.65235 0.65235 
0.65882 0.65626 0.65626 0.65626 
0.66275 0.66017 0.66017 0.66017 
0.66667 0.66407 0.66407 0.66407 
0.67059 0.66798 0.66798 0.66798 
0.67451 0.67189 0.67189 0.67189 
0.67843 0.67579 0.67579 0.67579 
0.68235 0.67970 0.67970 0.67970 
0.68627 0.68360 0.68360 0.68360 
0.69020 0.68751 0.68751 0.68751 
0.69412 0.69142 0.69142 0.69142 
0.69804 0.69532 0.69532 0.69532 
0.70196 0.69923 0.69923 0.69923 
0.70588 0.70314 0.70314 0.70314 
0.70980 0.70704 0.70704 0.70704 
0.71373 0.71095 0.71095 0.71095 
0.71765 0.71485 0.71485 0.71485 
0.72157 0.71876 0.71876 0.71876 
0.72549 0.72267 0.72267 0.72267 
0.72941 0.72657 0.72657 0.72657 
0.73333 0.73048 0.73048 0.73048 
0.73725 0.73439 0.73439 0.73439 
0.74118 0.73829 0.73829 0.73829 
0.74510 0.74220 0.74220 0.74220 
0.74902 0.74611 0.74611 0.74611 
0.75294 0.75001 0.75001 0.75001 
0.75686 0.75392 0.75392 0.75392 
0.76078 0.75782 0.75782 0.75782 
0.76471 0.76173 0.76173 0.76173 
0.76863 0.76564 0.76564 0.76564 
0.77255 0.76954 0.76954 0.76954 
0.77647 0.77345 0.77345 0.77345 
0.78039 0.77736 0.77736 0.77736 
0.78431 0.78126 0.78126 0.78126 
0.78824 0.78517 0.78517 0.78517 
0.79216 0.78907 0.78907 0.78907 
0.79608 0.79298 0.79298 0.79298 
0.80000 0.79689 0.79689 0.79689 
0.80392 0.80079 0.80079 0.80079 
0.80784 0.80470 0.80470 0.80470 
0.81176 0.80861 0.80861 0.80861 
0.81569 0.81251 0.81251 0.81251 
0.81961 0.81642 0.81642 0.81642 
0.82353 0.82033 0.82033 0.82033 
0.82745 0.82423 0.82423 0.82423 
0.83137 0.82814 0.82814 0.82814 
0.83529 0.83204 0.83204 0.83204 
0.83922 0.83595 0.83595 0.83595 
0.84314 0.83986 0.83986 0.83986 
0.84706 0.84376 0.84376 0.84376 
0.85098 0.84767 0.84767 0.84767 
0.85490 0.85158 0.85158 0.85158 
0.85882 0.85548 0.85548 0.85548 
0.86275 0.85939 0.85939 0.85939 
0.86667 0.86329 0.86329 0.86329 
0.87059 0.86720 0.86720 0.86720 
0.87451 0.87111 0.87111 0.87111 
0.87843 0.87501 0.87501 0.87501 
0.88235 0.87892 0.87892 0.87892 
0.88627 0.88283 0.88283 0.88283 
0.89020 0.88673 0.88673 0.88673 
0.89412 0.89064 0.89064 0.89064 
0.89804 0.89454 0.89454 0.89454 
0.90196 0.89845 0.89845 0.89845 
0.90588 0.90236 0.90236 0.90236 
0.90980 0.90626 0.90626 0.90626 
0.91373 0.91017 0.91017 0.91017 
0.91765 0.91408 0.91408 0.91408 
0.92157 0.91798 0.91798 0.91798 
0.92549 0.92189 0.92189 0.92189 
0.92941 0.92580 0.92580 0.92580 
0.93333 0.92970 0.92970 0.92970 
0.93725 0.93361 0.93361 0.93361 
0.94118 0.93751 0.93751 0.93751 
0.94510 0.94142 0.94142 0.94142 
0.94902 0.94533 0.94533 0.94533 
0.95294 0.94923 0.94923 0.94923 
0.95686 0.95314 0.95314 0.95314 
0.96078 0.95705 0.95705 0.95705 
0.96471 0.96095 0.96095 0.96095 
0.96863 0.96486 0.96486 0.96486 
0.97255 0.96876 0.96876 0.96876 
0.97647 0.97267 0.97267 0.97267 
0.98039 0.97658 0.97658 0.97658 
0.98431 0.98048 0.98048 0.98048 
0.98824 0.98439 0.98439 0.98439 
0.99216 0.98830 0.98830 0.98830 
0.99608 0.99220 0.99220 0.99220 
1.0000 0.99611 0.99611 0.99611 
END_DATA
