CTI3   

DESCRIPTOR "Argyll Calibration Target chart information 3"
ORIGINATOR "Argyll dispread"
CREATED "Tue Jan 10 16:05:54 2012"
KEYWORD "DEVICE_CLASS"
DEVICE_CLASS "DISPLAY"
KEYWORD "COLOR_REP"
COLOR_REP "RGB_XYZ"
KEYWORD "TARGET_INSTRUMENT"
TARGET_INSTRUMENT "Hughski ColorHug"
KEYWORD "INSTRUMENT_TYPE_SPECTRAL"
INSTRUMENT_TYPE_SPECTRAL "NO"
KEYWORD "LUMINANCE_XYZ_CDM2"
LUMINANCE_XYZ_CDM2 "157.288803 165.864655 160.080048"
KEYWORD "NORMALIZED_TO_Y_100"
NORMALIZED_TO_Y_100 "YES"

NUMBER_OF_FIELDS 7
BEGIN_DATA_FORMAT
SAMPLE_ID RGB_R RGB_G RGB_B XYZ_X XYZ_Y XYZ_Z 
END_DATA_FORMAT

NUMBER_OF_SETS 836
BEGIN_DATA
1 100.00 100.00 100.00 94.830 100.00 96.512 
2 100.00 100.00 100.00 95.033 100.08 96.427 
3 100.00 100.00 100.00 94.830 100.00 96.512 
4 100.00 100.00 100.00 95.033 100.08 96.427 
5 33.330 32.622 30.968 12.805 12.199 17.853 
6 100.00 0.0000 100.00 65.362 38.454 89.402 
7 100.00 100.00 0.0000 69.974 83.906 9.4327 
8 0.0000 100.00 100.00 55.063 78.068 95.245 
9 0.0000 100.00 0.0000 30.567 62.578 9.1859 
10 0.0000 0.0000 100.00 25.596 16.522 88.134 
11 100.00 0.0000 0.0000 40.916 23.078 2.5421 
12 0.0000 0.0000 0.0000 1.4827 1.4141 2.5003 
13 0.0000 52.455 100.00 33.083 31.359 91.663 
14 100.00 0.0000 50.300 48.534 27.224 29.766 
15 100.00 54.739 100.00 73.516 54.762 92.655 
16 100.00 52.128 0.0000 48.427 37.694 5.4748 
17 0.0000 0.0000 46.181 7.8987 4.6761 26.132 
18 0.0000 51.141 0.0000 8.3802 15.231 5.2987 
19 0.0000 100.00 51.348 38.364 67.025 36.920 
20 100.00 100.00 52.037 78.334 89.037 38.102 
21 49.216 0.0000 0.0000 8.8496 5.3743 3.1162 
22 56.159 100.00 0.0000 40.508 67.688 10.087 
23 49.226 100.00 100.00 62.814 82.410 96.286 
24 44.487 0.0000 100.00 32.274 19.791 90.013 
25 100.00 44.498 52.029 54.814 38.747 34.766 
26 48.926 48.544 100.00 39.987 33.928 92.469 
27 51.368 100.00 47.250 45.907 71.107 34.537 
28 49.893 0.0000 49.033 16.314 9.5538 29.624 
29 53.109 51.372 0.0000 17.355 20.612 6.2173 
30 0.0000 58.587 53.943 18.946 24.479 36.173 
31 100.00 28.065 100.00 68.054 43.740 90.822 
32 0.0000 0.0000 72.874 15.033 9.1461 51.806 
33 0.0000 26.758 100.00 28.058 21.391 89.845 
34 0.0000 25.426 0.0000 3.7650 5.9815 3.7000 
35 72.508 0.0000 100.00 42.675 25.733 90.333 
36 100.00 27.395 0.0000 43.455 28.399 3.2463 
37 74.470 100.00 100.00 73.392 88.097 96.725 
38 100.00 0.0000 25.728 43.498 24.211 12.963 
39 73.862 0.0000 0.0000 19.224 10.980 3.6411 
40 100.00 100.00 25.402 73.016 85.871 19.272 
41 0.0000 75.751 100.00 41.340 48.455 93.705 
42 0.0000 75.172 0.0000 16.817 32.629 7.8513 
43 0.0000 100.00 25.864 33.583 64.207 19.230 
44 100.00 0.0000 74.801 55.285 31.311 55.014 
45 0.0000 100.00 75.421 45.319 71.193 62.083 
46 24.577 0.0000 0.0000 3.8527 2.4832 2.8707 
47 26.321 100.00 0.0000 33.345 63.808 9.3853 
48 100.00 75.835 0.0000 56.661 55.012 8.1130 
49 100.00 100.00 77.061 85.598 93.695 65.086 
50 71.263 100.00 0.0000 47.110 71.442 10.244 
51 0.0000 0.0000 15.614 2.6338 2.1828 6.8927 
52 0.0000 30.049 70.936 17.470 14.615 50.994 
53 100.00 77.691 100.00 82.336 72.543 95.632 
54 24.486 100.00 100.00 57.613 79.439 96.126 
55 100.00 62.784 31.909 55.393 46.723 20.512 
56 29.552 0.0000 100.00 28.910 18.099 89.474 
57 32.980 70.921 100.00 43.573 46.726 94.319 
58 0.0000 27.681 40.241 9.5928 9.1591 23.875 
59 67.901 71.021 100.00 54.331 52.714 95.269 
60 28.154 100.00 67.829 46.178 71.268 53.922 
61 71.637 100.00 70.001 60.429 79.135 56.722 
62 58.822 58.763 53.586 30.060 30.513 37.753 
63 33.466 30.480 0.0000 8.5871 9.6871 4.2170 
64 100.00 73.795 71.277 69.238 61.341 56.263 
65 68.394 29.692 0.0000 19.369 15.453 4.5708 
66 70.399 0.0000 29.039 20.329 11.437 15.461 
67 28.078 0.0000 26.956 7.4556 4.5744 13.255 
68 28.532 72.339 0.0000 18.952 32.165 7.7304 
69 100.00 30.941 26.496 46.983 30.597 15.027 
70 34.597 0.0000 73.611 19.725 11.728 53.738 
71 71.573 0.0000 72.408 31.346 17.593 53.154 
72 0.0000 71.029 29.412 18.422 30.864 19.453 
73 68.386 75.008 0.0000 31.959 40.709 8.9122 
74 68.088 27.309 100.00 43.301 29.323 92.422 
75 100.00 26.457 73.749 57.822 36.074 55.328 
76 74.344 100.00 27.392 52.064 74.201 21.426 
77 27.558 100.00 28.197 36.873 66.006 21.166 
78 31.196 27.465 100.00 32.213 23.625 90.637 
79 0.0000 75.521 72.824 30.804 41.416 57.172 
80 0.0000 50.930 25.553 11.372 17.082 15.939 
81 32.060 33.584 64.033 19.888 16.555 44.327 
82 81.666 55.380 0.0000 32.579 30.260 7.0541 
83 68.257 32.751 58.286 29.366 21.587 39.573 
84 0.0000 55.248 81.585 26.409 27.722 65.409 
85 73.781 52.099 100.00 51.181 40.971 93.434 
86 100.00 50.537 82.952 65.941 47.743 69.303 
87 23.550 0.0000 50.439 11.420 6.5138 30.895 
88 31.335 62.746 31.114 19.374 26.865 20.208 
89 100.00 18.310 49.418 49.587 29.635 30.306 
90 26.498 48.404 0.0000 10.901 15.707 5.9936 
91 47.910 100.00 85.744 56.853 77.551 77.136 
92 71.829 47.313 31.811 28.270 25.055 20.354 
93 31.304 64.132 69.316 29.116 33.181 52.979 
94 80.403 0.0000 54.321 31.612 17.780 34.909 
95 18.455 50.036 100.00 34.432 31.469 92.070 
96 50.653 100.00 16.345 40.053 67.593 14.568 
97 80.121 100.00 52.261 60.618 78.871 39.483 
98 0.0000 22.540 19.289 5.1691 6.0087 9.9331 
99 100.00 75.273 46.886 63.359 58.427 33.772 
100 0.0000 78.618 56.625 27.638 41.693 40.958 
101 51.137 80.627 100.00 52.421 58.660 95.704 
102 48.446 0.0000 17.864 10.511 6.1544 8.8538 
103 100.00 50.023 21.211 49.987 38.245 12.814 
104 50.115 20.118 0.0000 10.923 8.7451 3.6197 
105 58.099 72.426 33.158 30.435 38.408 23.584 
106 19.364 100.00 50.197 40.147 67.632 36.951 
107 50.683 19.177 100.00 35.342 23.784 90.685 
108 53.370 0.0000 81.576 26.973 16.042 63.570 
109 47.768 76.245 0.0000 24.825 37.724 8.3966 
110 0.0000 18.927 55.503 11.508 8.8198 34.571 
111 0.0000 13.277 0.0000 2.0988 2.7710 3.0255 
112 72.862 72.473 75.625 48.210 48.842 62.541 
113 100.00 13.904 0.0000 41.763 24.852 2.7768 
114 86.349 0.0000 100.00 51.699 30.671 90.059 
115 100.00 41.941 100.00 70.567 48.724 91.731 
116 100.00 81.785 16.464 60.991 62.236 13.139 
117 0.0000 44.063 52.596 15.074 17.152 33.293 
118 0.0000 0.0000 58.917 10.737 6.5612 36.057 
119 59.250 24.551 29.789 17.998 13.496 16.840 
120 82.730 82.874 100.00 68.691 69.603 96.299 
121 80.039 0.0000 12.618 23.611 13.253 7.2611 
122 60.957 47.729 77.817 35.444 29.647 62.585 
123 100.00 0.0000 38.618 45.824 25.526 21.152 
124 0.0000 40.090 100.00 30.747 26.119 90.873 
125 0.0000 15.283 82.322 19.357 13.004 64.622 
126 17.592 81.726 100.00 46.024 55.544 95.852 
127 100.00 14.130 100.00 66.335 39.856 90.557 
128 15.261 100.00 82.059 49.023 73.513 70.865 
129 47.770 79.418 60.389 36.413 47.175 45.471 
130 18.768 16.429 0.0000 4.3447 4.7691 2.8666 
131 55.634 100.00 65.763 52.064 74.372 52.429 
132 100.00 100.00 38.541 75.139 87.107 27.547 
133 17.421 0.0000 83.497 20.245 12.281 65.610 
134 17.237 16.758 100.00 28.407 19.762 89.302 
135 0.0000 15.067 30.039 6.1367 4.9810 16.151 
136 0.0000 0.0000 86.505 19.841 12.301 69.290 
137 75.736 72.799 50.020 42.351 45.526 35.944 
138 100.00 83.323 85.529 78.919 74.498 74.851 
139 100.00 100.00 64.894 81.428 90.739 50.259 
140 81.980 84.914 0.0000 44.685 55.841 9.8453 
141 0.0000 63.757 15.490 13.480 23.777 11.565 
142 49.514 66.135 100.00 45.422 44.614 94.508 
143 100.00 0.0000 61.862 51.295 28.658 40.697 
144 24.308 45.410 49.831 17.522 18.672 32.658 
145 15.963 0.0000 17.047 4.1889 2.9313 7.6053 
146 87.497 100.00 100.00 81.804 92.794 96.708 
147 52.099 25.003 75.752 26.852 18.843 57.586 
148 14.909 81.162 0.0000 20.938 39.034 9.0632 
149 0.0000 34.792 14.626 6.7329 9.3681 9.0914 
150 48.390 45.075 22.552 17.047 18.431 13.359 
151 83.545 65.965 100.00 61.608 53.432 94.936 
152 16.226 62.345 0.0000 13.321 23.073 6.9503 
153 63.222 0.0000 14.914 14.971 8.6977 7.9591 
154 80.449 13.446 0.0000 23.843 14.606 4.2435 
155 83.917 41.562 0.0000 30.775 24.251 6.6226 
156 100.00 60.448 46.300 57.511 46.464 31.122 
157 15.584 0.0000 34.795 6.9237 4.0291 18.741 
158 17.144 65.121 100.00 38.690 40.673 93.039 
159 83.602 55.334 62.667 44.386 36.959 45.001 
160 0.0000 82.190 14.220 21.558 40.571 13.097 
161 25.132 74.856 50.616 27.189 38.225 35.870 
162 0.0000 13.769 100.00 26.569 17.924 89.290 
163 87.181 0.0000 0.0000 27.840 15.758 3.5389 
164 0.0000 100.00 39.190 35.858 65.408 28.220 
165 78.047 65.914 19.865 35.357 36.916 14.877 
166 100.00 63.961 15.865 53.144 45.858 11.317 
167 100.00 45.955 36.032 51.747 37.382 22.404 
168 15.926 100.00 16.890 33.247 63.759 14.496 
169 41.459 100.00 0.0000 36.505 65.419 10.010 
170 48.707 37.288 48.139 20.493 17.748 31.208 
171 83.381 100.00 13.285 55.499 75.983 13.941 
172 78.129 25.303 75.621 39.012 25.614 58.533 
173 12.396 0.0000 0.0000 2.2470 1.6202 2.9590 
174 37.607 48.336 83.346 30.454 27.116 69.357 
175 35.588 15.356 0.0000 7.1222 5.9985 3.0660 
176 61.245 100.00 100.00 66.993 84.423 96.482 
177 100.00 67.290 87.195 72.530 59.756 76.125 
178 0.0000 0.0000 30.615 4.9336 3.1618 15.287 
179 35.187 81.789 83.323 42.357 52.617 72.234 
180 39.525 80.194 22.879 27.240 42.282 17.534 
181 50.634 34.593 0.0000 13.179 12.976 5.0244 
182 14.175 100.00 63.146 42.528 69.242 47.848 
183 83.493 17.728 34.574 30.792 19.349 19.662 
184 23.463 22.014 79.943 21.755 15.345 62.060 
185 18.066 31.847 0.0000 6.2171 8.6180 3.8465 
186 87.201 100.00 81.361 74.233 87.269 71.020 
187 0.0000 100.00 87.950 49.795 74.080 78.342 
188 34.476 17.888 46.220 13.694 9.7844 27.804 
189 18.277 0.0000 67.390 14.925 8.5564 46.390 
190 100.00 87.972 0.0000 62.716 68.549 8.3405 
191 82.925 34.850 100.00 53.404 37.009 92.484 
192 0.0000 88.016 100.00 47.728 62.260 95.159 
193 36.104 85.655 100.00 51.595 62.289 95.870 
194 60.981 0.0000 0.0000 13.056 7.7229 3.1079 
195 51.466 61.826 78.106 35.671 35.687 63.291 
196 78.427 31.983 22.175 27.483 20.202 13.259 
197 66.017 44.321 0.0000 21.067 20.117 5.8222 
198 83.941 0.0000 84.177 43.086 24.589 68.513 
199 20.158 46.612 23.269 11.976 15.647 14.510 
200 0.0000 100.00 62.618 40.973 68.494 47.135 
201 33.832 0.0000 13.933 6.4565 4.1492 6.4596 
202 100.00 17.286 16.322 43.654 26.048 8.2240 
203 0.0000 42.204 83.926 24.278 22.184 67.651 
204 0.0000 87.774 0.0000 23.179 46.098 9.5096 
205 64.988 0.0000 59.017 24.171 13.550 38.808 
206 14.677 0.0000 100.00 26.921 16.854 89.137 
207 88.934 82.673 35.021 52.641 57.816 25.999 
208 0.0000 63.778 100.00 36.672 38.533 92.517 
209 83.429 17.674 100.00 50.942 32.139 90.773 
210 30.899 100.00 85.668 52.928 75.733 76.053 
211 83.680 0.0000 41.016 30.660 17.289 23.805 
212 100.00 63.515 0.0000 51.609 44.707 6.4994 
213 85.074 69.987 0.0000 39.670 41.924 8.2034 
214 20.801 45.524 69.018 21.743 21.364 49.803 
215 21.382 82.482 73.017 36.356 49.498 58.567 
216 100.00 15.128 64.249 53.037 31.383 43.092 
217 36.522 0.0000 58.427 15.453 8.9212 37.394 
218 22.466 81.296 33.007 26.126 42.390 23.464 
219 62.531 87.152 0.0000 35.183 52.345 9.3502 
220 84.120 85.397 67.886 58.947 64.421 54.174 
221 18.870 27.336 45.389 12.197 10.825 27.464 
222 66.439 100.00 14.444 46.042 70.549 14.590 
223 41.636 22.147 19.003 10.777 9.1402 9.9220 
224 61.271 100.00 81.940 59.602 79.200 71.304 
225 86.013 100.00 0.0000 56.337 76.460 9.8853 
226 37.570 0.0000 0.0000 6.2493 3.8887 3.0362 
227 100.00 16.132 84.102 59.892 36.258 67.130 
228 0.0000 100.00 13.619 31.563 62.823 12.472 
229 38.905 100.00 56.471 44.996 70.360 43.108 
230 100.00 15.382 34.563 46.262 27.517 18.440 
231 36.656 14.908 100.00 31.541 21.037 90.131 
232 0.0000 62.593 66.608 23.757 29.506 48.204 
233 66.347 12.528 100.00 40.334 25.559 90.148 
234 100.00 43.375 69.233 59.263 41.298 51.229 
235 100.00 56.360 61.236 59.733 46.056 43.249 
236 0.0000 86.194 44.955 29.005 48.339 32.411 
237 64.527 87.262 100.00 60.827 68.423 96.293 
238 34.411 0.0000 42.471 11.415 6.7113 24.268 
239 80.230 59.707 85.120 51.276 43.467 73.124 
240 20.625 19.056 14.791 6.2094 5.6293 8.5187 
241 15.341 34.221 100.00 30.869 24.632 91.012 
242 36.777 0.0000 87.905 25.630 15.356 72.907 
243 34.598 56.247 100.00 38.672 35.829 93.030 
244 20.860 67.629 17.418 17.288 28.199 13.292 
245 44.958 60.843 18.054 19.516 25.353 13.124 
246 37.421 60.193 0.0000 16.069 23.408 6.9638 
247 84.011 33.849 42.612 35.499 24.903 27.058 
248 17.241 60.339 37.743 17.690 24.615 24.029 
249 50.650 17.261 53.278 18.949 12.673 33.790 
250 45.505 48.926 65.152 26.001 24.763 46.267 
251 44.567 84.081 39.649 33.176 49.055 28.317 
252 100.00 86.339 72.054 75.573 74.474 58.126 
253 68.140 61.135 0.0000 26.293 29.607 7.1643 
254 17.930 66.986 81.403 31.966 36.921 67.586 
255 39.242 60.215 48.926 23.738 27.667 33.387 
256 20.099 18.770 62.967 15.287 11.033 41.956 
257 34.553 100.00 14.582 36.254 65.405 14.405 
258 87.345 0.0000 66.694 39.397 22.442 45.881 
259 0.0000 43.714 39.842 12.389 15.232 24.084 
260 100.00 37.705 13.955 46.273 32.378 8.3133 
261 31.265 86.993 0.0000 26.388 47.266 8.9420 
262 51.402 82.661 81.338 45.543 54.943 69.535 
263 100.00 100.00 12.984 70.972 84.709 13.110 
264 0.0000 37.859 0.0000 5.8411 9.9106 4.5944 
265 62.092 58.215 100.00 47.266 41.386 93.914 
266 86.186 100.00 64.100 67.408 82.911 50.286 
267 100.00 35.251 85.898 63.427 41.823 71.121 
268 63.182 89.992 41.974 43.240 59.417 31.135 
269 13.504 100.00 0.0000 31.508 62.528 9.7641 
270 100.00 0.0000 13.228 41.735 23.579 5.7088 
271 63.881 40.826 100.00 43.698 33.432 92.074 
272 69.387 84.838 20.792 39.465 52.894 16.908 
273 0.0000 70.279 45.136 21.004 31.996 29.874 
274 79.094 64.754 40.908 39.342 38.453 28.412 
275 62.385 54.099 17.396 23.251 24.636 12.133 
276 64.408 14.621 0.0000 15.457 10.245 4.0552 
277 70.028 15.606 44.651 24.704 15.409 27.477 
278 0.0000 63.544 0.0000 12.149 22.707 6.6626 
279 83.475 47.274 20.502 33.644 27.967 14.007 
280 55.866 0.0000 32.671 15.003 8.4587 17.499 
281 58.007 0.0000 100.00 35.893 21.677 89.665 
282 100.00 0.0000 87.698 60.144 34.581 71.698 
283 0.0000 13.792 67.215 14.090 9.9520 44.992 
284 84.123 17.001 58.549 36.644 22.305 39.241 
285 59.579 32.873 15.966 17.488 14.798 9.6502 
286 10.410 32.998 28.659 8.7507 10.194 15.459 
287 17.231 40.031 85.650 26.242 22.715 71.311 
288 37.568 41.561 10.108 12.297 14.438 7.9360 
289 0.0000 69.015 85.092 32.561 38.680 72.216 
290 14.442 100.00 36.187 36.188 65.495 25.937 
291 100.00 40.549 0.0000 45.558 32.664 3.9357 
292 82.143 45.435 78.429 46.250 35.191 62.343 
293 52.674 0.0000 67.300 21.884 12.356 47.177 
294 0.0000 87.868 66.793 34.633 52.931 50.335 
295 86.530 100.00 40.524 62.165 79.637 30.060 
296 71.777 85.586 67.232 51.172 60.300 53.730 
297 43.216 100.00 31.671 40.723 67.931 23.646 
298 39.245 32.908 85.845 28.758 22.075 71.224 
299 0.0000 45.662 67.543 19.421 19.851 48.241 
300 12.161 100.00 100.00 55.801 77.938 95.909 
301 67.049 0.0000 85.516 33.835 19.793 69.467 
302 100.00 89.041 100.00 87.981 85.362 95.640 
303 20.246 60.698 56.526 22.163 26.943 39.897 
304 52.177 55.457 40.416 23.469 25.437 26.082 
305 72.617 87.018 83.932 57.720 65.622 73.219 
306 40.512 16.723 66.475 19.674 13.305 45.576 
307 68.507 49.232 50.605 30.858 26.926 34.674 
308 65.622 100.00 54.525 52.922 74.824 41.150 
309 54.115 37.240 66.394 26.395 21.196 46.868 
310 100.00 76.138 31.267 60.318 57.398 21.205 
311 54.728 65.623 0.0000 22.376 29.464 7.2540 
312 63.126 12.526 64.370 25.735 15.595 43.811 
313 72.827 18.080 23.704 22.552 14.593 13.171 
314 23.268 15.278 34.947 8.9949 6.8416 18.854 
315 87.648 68.954 59.645 51.193 47.911 43.733 
316 0.0000 85.595 85.198 40.459 55.172 73.237 
317 35.798 84.371 69.210 38.475 52.245 54.369 
318 36.062 47.494 35.919 16.980 18.899 21.773 
319 86.083 36.277 59.152 40.968 28.790 40.367 
320 58.210 100.00 30.361 44.953 70.058 23.042 
321 46.745 14.614 32.317 13.276 9.0829 17.449 
322 81.573 73.869 86.954 58.271 56.019 76.657 
323 85.991 49.387 48.206 41.055 33.166 31.962 
324 28.062 87.906 19.654 28.437 49.544 15.886 
325 68.992 17.993 85.124 36.289 22.988 70.005 
326 100.00 66.147 100.00 77.311 62.575 93.814 
327 33.358 64.806 84.517 34.844 37.066 72.028 
328 41.351 17.736 80.522 25.093 16.700 62.804 
329 100.00 100.00 88.719 89.918 96.058 80.239 
330 66.336 0.0000 44.320 21.485 12.008 26.480 
331 64.850 67.090 12.293 27.812 33.590 11.023 
332 15.262 31.268 63.277 16.572 14.419 42.597 
333 15.008 43.663 37.300 13.228 15.331 23.146 
334 0.0000 57.895 38.078 15.442 22.058 23.797 
335 66.599 58.458 67.871 36.825 33.838 51.879 
336 59.191 18.651 15.215 14.852 10.743 8.2116 
337 66.781 31.140 84.629 36.988 25.912 70.306 
338 88.033 85.158 52.140 57.378 62.950 39.426 
339 36.882 100.00 100.00 59.626 80.462 95.866 
340 26.102 33.094 17.006 9.2560 10.403 10.177 
341 56.309 36.861 35.862 20.051 17.269 21.449 
342 45.839 65.587 67.033 31.512 34.964 50.026 
343 83.709 81.172 16.406 45.058 52.676 14.551 
344 0.0000 48.132 13.005 8.7887 15.013 8.2456 
345 87.176 50.021 100.00 59.591 45.110 93.026 
346 51.219 84.244 13.730 30.639 47.298 13.196 
347 60.606 71.415 48.406 33.805 39.524 33.868 
348 0.0000 11.359 12.718 2.8907 2.9356 6.3973 
349 86.429 49.705 33.145 38.470 31.475 21.150 
350 34.056 40.958 100.00 34.929 28.689 91.461 
351 100.00 30.557 59.628 53.785 34.800 39.475 
352 88.497 26.902 13.449 32.522 21.911 8.4130 
353 14.167 51.980 88.218 29.216 28.154 74.757 
354 13.784 12.983 49.370 10.558 7.5731 29.702 
355 15.018 88.441 48.062 31.972 52.104 34.685 
356 87.790 25.769 89.215 50.600 32.267 76.294 
357 0.0000 33.206 55.865 14.120 13.097 36.605 
358 74.324 76.029 35.536 39.852 45.961 25.300 
359 65.863 57.223 42.324 29.796 29.777 28.113 
360 30.893 54.646 13.136 13.997 19.659 9.5783 
361 0.0000 34.360 28.321 8.3698 10.370 15.425 
362 15.443 77.087 85.116 37.145 46.477 73.237 
363 63.381 68.947 68.521 39.475 41.620 52.545 
364 69.733 27.566 42.917 25.450 17.890 26.586 
365 32.754 100.00 42.760 40.500 67.875 30.954 
366 47.096 29.481 34.829 15.838 13.245 20.284 
367 8.5451 71.948 62.695 26.527 36.178 45.891 
368 0.0000 86.048 29.300 26.013 46.488 21.771 
369 53.697 51.572 85.367 36.172 31.774 72.035 
370 17.608 56.690 12.515 12.573 19.656 10.568 
371 90.638 14.414 49.227 38.929 22.940 30.481 
372 63.248 63.640 89.550 44.763 41.641 79.761 
373 100.00 85.976 58.455 71.380 71.740 43.894 
374 9.8311 28.027 7.5567 5.0922 6.8718 5.0940 
375 89.831 64.313 69.506 53.484 46.280 53.681 
376 31.754 12.995 25.543 8.6829 6.1717 13.523 
377 75.914 45.966 64.957 37.722 29.921 46.808 
378 7.5735 50.695 58.941 18.375 20.806 39.910 
379 100.00 69.835 58.912 63.352 55.060 41.562 
380 32.211 34.376 48.339 16.258 14.505 31.031 
381 13.901 12.159 73.555 17.027 11.508 52.924 
382 87.071 9.0280 77.653 43.437 25.210 59.398 
383 23.272 85.409 84.290 42.242 55.779 73.268 
384 93.289 39.480 26.145 40.264 29.447 15.513 
385 65.769 59.630 30.967 28.289 29.899 20.363 
386 100.00 32.265 41.803 50.052 32.899 24.662 
387 86.568 85.281 86.961 67.177 69.742 78.414 
388 52.577 86.830 30.016 34.835 51.904 21.974 
389 47.921 40.199 76.902 28.856 23.438 60.268 
390 22.360 86.619 61.580 34.855 52.050 45.754 
391 52.232 33.601 88.787 33.350 24.986 75.149 
392 0.0000 28.523 86.267 22.584 17.701 69.909 
393 43.497 67.879 39.551 25.481 32.643 27.210 
394 39.877 45.261 0.0000 12.681 15.756 5.6338 
395 86.940 12.430 24.699 30.885 18.281 13.769 
396 28.363 55.339 90.398 33.227 31.720 79.125 
397 39.018 70.534 57.879 29.680 36.493 42.224 
398 12.833 28.519 78.828 21.097 16.485 60.782 
399 68.350 31.815 69.975 32.281 22.987 51.220 
400 56.520 26.226 41.626 19.509 14.490 25.372 
401 12.938 46.218 0.0000 8.5018 13.744 5.4372 
402 8.6938 60.179 26.117 14.318 22.562 16.472 
403 51.995 89.429 96.608 55.579 67.209 91.480 
404 46.905 47.746 48.909 22.188 21.853 32.069 
405 14.352 81.814 19.479 22.858 41.125 14.696 
406 71.482 38.117 12.273 22.999 19.195 8.9048 
407 86.616 60.785 10.012 38.122 35.732 10.003 
408 71.811 88.979 52.186 48.545 61.484 39.047 
409 43.213 100.00 72.083 50.310 73.346 58.429 
410 73.920 23.444 8.2853 21.786 15.143 6.4765 
411 40.629 85.534 53.423 36.017 51.498 38.633 
412 38.955 52.128 22.885 16.113 20.156 13.953 
413 46.480 12.229 8.6707 9.7211 6.5480 5.8730 
414 40.855 33.301 22.309 12.929 12.584 12.538 
415 76.365 66.787 61.060 42.879 41.949 44.484 
416 7.5076 12.025 20.590 4.4999 3.9791 9.8178 
417 85.930 27.031 0.0000 29.385 20.455 4.0749 
418 100.00 87.757 44.060 68.952 71.509 31.462 
419 41.543 25.624 54.896 18.166 13.805 34.709 
420 59.533 76.669 91.789 49.591 53.204 82.838 
421 58.226 12.079 28.862 15.948 9.9029 15.741 
422 50.514 8.8602 88.281 29.048 17.721 73.036 
423 41.983 0.0000 31.301 11.051 6.3047 16.621 
424 28.024 36.455 77.877 24.010 19.954 60.347 
425 12.718 41.027 11.129 8.2943 12.169 7.8588 
426 26.194 75.573 88.088 39.259 46.415 77.221 
427 28.936 71.474 37.671 23.475 33.672 25.524 
428 90.497 74.770 26.512 48.614 50.343 18.895 
429 17.514 75.984 41.507 24.407 37.193 29.044 
430 16.621 64.069 68.891 26.336 31.393 52.388 
431 12.420 21.661 36.669 8.9491 7.8436 20.436 
432 52.915 46.814 10.465 16.968 18.736 8.1285 
433 56.979 91.194 52.490 43.609 60.940 39.564 
434 25.140 52.299 42.419 17.321 20.464 27.289 
435 25.587 6.8296 13.004 5.4378 3.7485 6.8872 
436 55.018 14.818 41.328 17.283 11.154 24.153 
437 93.397 56.942 87.959 61.446 48.057 76.462 
438 28.374 12.057 85.683 23.489 15.082 69.128 
439 78.265 6.7088 92.468 43.099 25.689 79.430 
440 39.694 71.314 6.3658 20.658 32.321 8.7674 
441 73.259 45.059 87.294 43.940 33.842 74.425 
442 26.381 57.692 76.454 28.142 29.528 60.396 
443 66.587 33.629 31.299 22.951 17.947 19.059 
444 88.523 74.434 46.718 50.969 51.239 33.115 
445 76.836 59.920 49.912 38.088 35.206 34.194 
446 33.152 90.418 31.148 32.555 54.077 22.552 
447 55.924 53.388 68.505 31.210 29.031 50.717 
448 77.248 91.798 41.448 51.150 65.778 30.946 
449 26.737 89.225 45.445 33.502 53.452 32.875 
450 87.642 100.00 25.942 60.348 78.711 20.098 
451 68.631 100.00 40.532 51.306 73.420 30.712 
452 14.485 50.449 49.078 16.839 20.033 31.975 
453 10.654 10.664 89.702 22.550 14.376 74.786 
454 31.962 49.108 62.920 22.684 22.628 44.536 
455 8.6779 22.468 68.278 16.033 12.199 46.911 
456 74.727 90.586 6.3447 43.430 60.090 11.169 
457 0.0000 12.136 44.106 8.3858 5.8455 25.346 
458 43.350 78.123 73.610 38.535 47.096 59.590 
459 10.925 11.786 9.5801 3.5525 3.2906 5.3398 
460 15.591 37.386 50.832 14.810 14.724 32.616 
461 10.685 68.959 9.3113 15.759 28.164 9.2563 
462 92.017 72.247 12.692 46.916 46.994 11.799 
463 89.839 77.431 73.400 60.480 58.453 60.332 
464 47.450 74.511 18.753 25.438 37.209 14.376 
465 50.097 90.816 69.461 45.838 61.829 55.982 
466 82.755 34.052 82.994 45.988 32.008 67.902 
467 46.786 72.919 85.794 41.340 45.656 74.392 
468 9.3304 90.457 73.518 39.419 58.557 59.844 
469 88.590 61.902 22.128 41.417 38.270 15.839 
470 100.00 61.262 74.222 65.362 51.584 58.446 
471 86.777 8.8992 8.4672 28.532 16.629 5.7854 
472 39.582 85.966 11.798 28.759 47.957 12.430 
473 85.958 0.0000 24.986 29.301 16.638 12.871 
474 80.299 22.552 47.163 32.025 20.371 29.675 
475 7.2180 45.128 76.547 22.616 21.782 58.796 
476 55.989 48.521 58.428 27.294 24.956 40.848 
477 50.728 10.774 73.284 23.780 14.669 53.406 
478 71.269 10.344 11.008 19.254 11.497 6.9450 
479 91.768 45.194 10.385 37.919 29.470 8.7018 
480 7.8976 42.553 25.130 9.7539 13.427 14.073 
481 54.269 55.846 25.175 21.625 24.175 16.326 
482 41.937 24.646 5.4249 9.8563 8.7881 5.2391 
483 89.502 33.423 70.991 46.610 31.305 53.014 
484 75.301 54.745 14.159 28.987 28.332 10.315 
485 76.653 6.2202 65.750 32.590 18.608 45.809 
486 58.072 77.769 7.4688 29.164 41.377 10.481 
487 27.429 73.801 76.267 34.090 41.720 61.443 
488 39.961 56.279 74.128 29.487 29.458 57.294 
489 23.430 28.561 70.622 19.303 15.337 50.224 
490 91.285 49.258 68.377 50.322 37.928 51.279 
491 95.591 89.122 11.382 58.746 67.356 11.958 
492 28.451 92.151 76.841 44.041 62.363 63.955 
493 26.242 26.080 53.808 14.979 11.857 34.290 
494 15.957 92.746 24.983 29.882 54.571 18.415 
495 13.563 9.1545 61.533 13.137 8.1470 39.732 
496 13.216 24.593 54.939 12.812 10.868 33.834 
497 91.885 89.769 79.537 70.928 75.002 68.079 
498 100.00 88.684 29.334 66.756 71.318 21.857 
499 34.090 65.771 20.136 19.171 28.098 14.448 
500 20.961 77.373 9.9329 20.522 36.263 10.789 
501 48.985 66.059 50.556 28.543 33.270 35.672 
502 92.409 9.0241 90.897 52.708 31.466 76.378 
503 40.340 11.090 52.408 15.580 9.8645 32.470 
504 41.367 58.198 88.277 35.472 34.096 75.848 
505 72.147 77.604 91.982 55.712 56.905 84.563 
506 12.761 67.714 50.147 22.277 31.278 34.405 
507 76.617 25.882 91.445 44.027 29.029 79.441 
508 92.734 34.742 50.285 43.636 29.808 32.033 
509 16.114 24.640 92.845 26.056 19.047 78.591 
510 22.589 72.255 61.762 28.184 37.156 45.001 
511 79.742 58.911 30.090 35.500 33.335 19.873 
512 75.000 100.00 87.265 67.994 83.921 78.510 
513 22.068 58.052 24.509 15.129 21.766 15.348 
514 29.302 20.341 8.3315 6.9992 6.5496 5.6546 
515 75.009 40.707 41.951 30.587 24.137 26.979 
516 76.599 13.357 74.764 36.222 21.594 56.379 
517 10.272 88.110 94.612 45.986 60.849 86.918 
518 34.093 23.728 89.777 27.428 19.313 75.284 
519 29.867 13.694 72.950 19.601 12.657 53.209 
520 64.983 91.010 77.614 54.055 66.429 66.186 
521 66.135 26.770 20.928 19.908 15.046 11.947 
522 36.207 25.309 75.344 22.747 16.723 55.993 
523 78.931 73.018 10.687 37.716 42.312 11.953 
524 30.391 22.415 20.277 8.7640 8.1169 10.181 
525 11.242 82.956 64.472 32.372 47.583 48.149 
526 80.459 87.628 28.607 48.271 59.829 21.998 
527 27.707 31.870 88.315 27.153 20.834 74.430 
528 62.060 36.458 46.606 24.544 19.573 30.094 
529 29.542 11.104 53.546 13.720 8.8068 33.444 
530 68.762 19.114 33.778 22.353 14.315 19.883 
531 59.637 48.524 31.174 22.943 22.454 19.274 
532 48.298 33.520 100.00 36.654 27.507 91.120 
533 45.598 28.163 66.475 22.511 16.882 46.539 
534 29.918 44.928 90.506 31.148 27.232 77.840 
535 78.316 92.636 77.206 62.141 72.534 66.117 
536 91.281 57.367 55.776 48.590 40.063 38.757 
537 21.692 25.080 26.495 8.5637 8.2172 13.776 
538 74.304 63.813 94.636 52.774 46.539 86.933 
539 88.481 29.745 32.468 35.744 24.178 18.763 
540 59.486 41.236 87.042 36.568 28.765 73.027 
541 92.045 78.449 60.137 58.610 58.168 44.935 
542 61.977 24.673 6.6648 16.051 12.382 5.5673 
543 40.162 92.786 90.522 51.835 67.944 82.335 
544 36.748 77.066 93.097 43.884 50.401 84.841 
545 20.161 69.446 29.150 19.565 30.336 19.555 
546 47.187 88.771 0.0000 30.982 51.113 10.140 
547 44.188 43.219 90.474 33.873 27.789 78.449 
548 8.9634 92.695 8.7975 27.098 52.981 11.198 
549 32.387 45.286 72.510 24.830 22.705 54.942 
550 48.879 44.876 39.601 20.139 19.575 25.124 
551 61.287 11.463 77.817 29.393 17.603 60.021 
552 25.396 43.768 11.365 10.490 14.053 8.5007 
553 76.983 53.137 73.131 42.634 35.177 57.237 
554 43.083 65.437 28.359 22.105 29.474 18.872 
555 11.708 51.209 32.796 13.338 18.171 19.990 
556 71.238 41.136 23.296 25.147 21.144 13.856 
557 21.758 7.4731 22.877 6.1549 4.0205 11.656 
558 23.721 37.471 27.997 11.203 12.830 15.605 
559 10.847 0.0000 52.434 10.197 6.0330 31.408 
560 52.184 32.794 25.185 15.989 13.967 14.764 
561 25.164 57.264 2.5113 13.030 20.309 6.4780 
562 25.531 62.973 45.088 21.192 27.791 30.170 
563 59.406 92.015 9.9812 37.573 57.880 12.848 
564 9.0031 43.883 94.414 29.622 26.065 83.158 
565 29.380 24.618 40.510 12.547 10.132 24.194 
566 56.497 10.252 5.6832 12.192 7.8461 4.6418 
567 70.521 20.255 56.201 27.823 17.825 36.310 
568 81.365 40.212 31.436 32.416 25.056 19.583 
569 56.550 19.280 86.012 31.448 20.621 70.865 
570 25.096 37.115 57.433 17.669 16.207 38.436 
571 87.229 43.818 88.570 53.092 38.967 75.463 
572 9.0945 89.498 36.178 29.546 51.495 25.370 
573 60.107 91.337 22.013 38.824 57.942 18.366 
574 43.216 91.406 24.486 33.982 55.574 19.227 
575 55.315 58.321 10.243 20.681 24.981 9.5115 
576 63.269 92.590 62.685 49.178 65.434 48.153 
577 20.915 89.348 8.0709 26.371 49.162 10.711 
578 33.841 42.636 23.687 13.526 15.279 14.441 
579 82.320 36.054 11.955 29.369 21.974 8.9615 
580 78.197 45.345 53.373 35.902 28.437 36.455 
581 87.492 64.105 49.348 46.381 41.948 34.429 
582 80.208 74.738 68.707 50.961 51.427 53.982 
583 12.847 33.194 39.194 10.924 11.544 22.933 
584 15.215 55.484 78.368 26.609 27.622 61.814 
585 25.437 6.1049 39.533 9.5275 5.6951 22.330 
586 57.870 49.584 46.944 25.834 24.076 31.516 
587 67.620 65.849 53.975 36.192 37.383 38.315 
588 26.643 41.991 38.871 14.400 15.697 23.433 
589 42.800 8.7865 22.456 10.031 6.6597 10.813 
590 57.049 35.385 77.322 30.636 23.486 59.908 
591 36.112 43.832 54.787 20.096 19.443 36.061 
592 62.719 62.395 77.348 39.520 37.990 62.653 
593 60.706 81.416 54.884 39.751 49.844 40.369 
594 90.695 4.9508 56.719 39.746 22.505 36.375 
595 43.936 24.373 43.898 16.017 12.233 26.639 
596 4.3825 24.210 30.612 7.2400 7.5073 15.891 
597 53.911 79.942 42.742 34.259 45.801 30.774 
598 90.172 22.149 68.288 43.996 27.406 47.861 
599 77.586 29.345 63.000 34.872 23.553 43.891 
600 60.572 25.668 63.187 25.744 18.206 42.257 
601 97.729 10.927 74.359 52.968 30.915 54.234 
602 57.769 8.0576 53.146 20.116 11.923 33.296 
603 77.517 92.691 61.488 56.416 69.207 47.458 
604 44.198 38.831 60.002 22.364 19.347 40.760 
605 65.034 81.736 33.440 37.445 48.505 24.958 
606 67.829 69.791 24.123 31.698 37.148 17.589 
607 25.001 99.668 13.437 34.112 64.194 13.353 
608 89.683 25.837 56.548 41.033 26.450 37.407 
609 41.656 51.246 11.867 15.394 19.326 8.7937 
610 23.720 38.131 96.840 30.816 25.273 85.577 
611 78.049 6.5915 25.803 24.433 13.935 13.937 
612 46.116 56.291 55.290 25.391 26.773 37.951 
613 92.023 9.1483 37.844 36.804 21.147 21.816 
614 91.068 89.904 23.497 56.410 66.984 18.400 
615 76.477 27.045 32.402 27.075 18.728 19.275 
616 42.661 5.2197 80.136 23.887 14.323 61.549 
617 6.2584 65.435 77.208 28.437 33.409 61.650 
618 89.710 95.846 52.578 64.604 76.854 39.942 
619 88.397 77.149 94.397 67.363 63.287 87.282 
620 78.888 91.034 93.609 67.511 75.436 87.263 
621 47.820 92.501 59.000 42.776 61.580 44.402 
622 23.826 47.444 80.539 26.703 24.862 64.885 
623 9.0413 12.290 37.978 7.6181 5.4590 21.379 
624 23.331 16.308 46.267 11.348 8.4934 26.838 
625 35.756 10.704 35.900 10.904 7.0777 19.805 
626 2.9969 77.210 88.879 37.275 46.287 77.667 
627 28.436 75.743 23.117 22.661 35.602 17.294 
628 9.0221 78.989 30.580 22.778 38.802 21.156 
629 8.8030 17.371 0.30943 3.1465 4.0664 2.7838 
630 60.160 36.719 3.7856 17.184 15.803 5.4925 
631 7.0698 90.899 57.373 34.637 55.739 42.154 
632 79.721 9.5270 45.163 29.518 17.440 26.821 
633 10.879 74.236 95.746 39.624 46.444 87.987 
634 64.217 22.086 74.373 30.366 20.320 55.331 
635 70.017 40.853 76.607 37.294 28.471 60.047 
636 4.7334 24.411 48.203 10.870 9.5570 29.187 
637 50.973 26.358 13.005 13.071 10.695 8.5713 
638 2.5724 55.065 90.994 29.707 29.504 77.480 
639 90.879 45.601 57.982 45.923 34.178 39.859 
640 68.145 79.947 44.862 40.327 48.829 32.909 
641 1.4829 67.595 54.158 22.152 31.270 36.602 
642 98.031 12.492 26.865 41.693 24.384 13.918 
643 76.470 93.209 18.886 47.215 64.355 16.609 
644 87.292 66.922 80.462 56.409 49.912 66.891 
645 10.233 96.829 47.233 35.977 62.049 33.813 
646 68.028 67.167 39.031 33.457 36.285 27.179 
647 45.312 94.998 9.2426 34.576 59.403 11.776 
648 77.970 53.709 40.015 34.656 30.806 25.874 
649 39.314 57.645 38.800 20.769 24.659 24.877 
650 57.297 82.865 67.439 42.877 52.999 53.103 
651 37.555 22.599 31.928 12.082 9.4967 18.148 
652 92.350 23.597 40.911 39.516 24.716 24.976 
653 9.3660 69.976 21.141 17.395 29.166 15.590 
654 51.187 19.140 23.012 13.223 9.7241 12.014 
655 79.397 80.212 79.858 56.749 58.973 67.949 
656 95.392 55.226 12.927 44.230 36.642 9.7738 
657 41.375 92.945 46.055 38.205 59.203 33.645 
658 45.146 82.618 89.901 47.439 55.942 81.609 
659 77.443 63.822 71.275 45.558 41.816 55.639 
660 53.973 31.254 55.289 22.326 17.156 36.283 
661 67.321 92.812 91.875 61.523 73.417 84.513 
662 39.436 37.141 40.709 16.613 15.306 25.425 
663 97.731 46.918 91.781 65.309 46.591 79.509 
664 40.993 6.1961 67.428 18.980 11.498 46.057 
665 79.123 80.606 57.718 49.617 55.061 42.667 
666 28.913 52.537 29.968 15.632 19.725 18.639 
667 14.658 37.254 73.035 20.563 18.009 54.187 
668 82.795 16.173 87.132 44.753 27.422 72.305 
669 8.3262 91.659 83.695 43.563 62.113 72.150 
670 45.527 77.031 49.285 31.858 41.965 35.672 
671 9.0854 40.031 62.080 17.141 17.156 41.587 
672 95.919 70.219 40.212 54.342 49.737 27.594 
673 42.670 92.336 77.786 47.381 64.277 65.090 
674 94.260 40.143 78.486 54.374 37.683 62.245 
675 65.647 53.082 89.436 42.500 35.735 77.183 
676 81.521 18.364 16.183 26.551 16.681 9.7395 
677 8.4681 2.0260 9.4857 2.5555 2.1097 4.7806 
678 30.651 60.550 56.553 23.642 28.177 38.888 
679 53.483 73.043 73.646 38.596 43.262 58.966 
680 90.408 54.335 1.4985 38.031 32.868 5.9367 
681 26.668 7.7075 63.496 15.255 9.5797 41.379 
682 58.933 25.917 94.913 36.613 25.135 83.135 
683 9.8548 0.76371 72.617 15.618 9.0502 51.754 
684 47.990 75.517 31.176 28.019 38.719 21.679 
685 48.087 9.0808 60.091 19.026 11.810 38.629 
686 10.988 21.876 19.614 5.9334 6.2148 10.392 
687 22.598 55.646 65.078 22.951 25.614 45.604 
688 9.0697 82.142 78.531 36.334 48.965 65.398 
689 90.301 42.459 39.120 40.936 30.343 24.982 
690 47.378 36.472 11.171 13.463 13.688 7.4419 
691 49.382 1.8032 9.6600 9.5656 6.0241 4.7668 
692 1.9703 20.522 9.5307 3.6347 4.8579 5.1158 
693 81.649 69.738 31.735 41.030 42.198 22.255 
694 34.530 73.626 67.130 32.474 40.316 51.005 
695 81.659 80.940 43.479 48.435 54.154 31.853 
696 10.291 63.628 90.197 32.833 35.287 78.523 
697 9.3825 51.554 18.669 10.808 16.775 11.886 
698 17.762 96.201 72.191 43.184 65.853 57.699 
699 67.560 52.693 6.6256 23.500 24.092 7.3464 
700 45.853 7.7641 41.225 14.042 8.5333 24.143 
701 10.950 73.197 73.054 30.516 39.210 57.090 
702 30.698 39.723 1.5250 9.4891 12.692 4.4327 
703 81.002 52.333 91.825 51.806 40.448 82.055 
704 51.213 8.0050 98.430 33.318 20.906 86.262 
705 5.4368 7.4372 80.307 18.153 11.562 60.639 
706 23.483 5.5586 76.358 18.581 11.320 56.364 
707 32.278 78.328 11.186 22.921 38.227 11.345 
708 4.5816 10.694 55.933 11.045 7.4285 34.761 
709 89.829 62.524 36.614 44.918 40.510 24.706 
710 80.544 47.439 8.1742 29.994 25.942 7.9325 
711 52.750 18.751 64.422 22.552 14.764 44.174 
712 62.358 2.6644 71.659 26.630 15.233 51.817 
713 64.674 45.928 67.561 32.753 26.989 49.475 
714 9.4766 33.184 90.141 25.703 20.495 75.625 
715 70.466 56.323 80.091 42.214 36.716 65.803 
716 57.237 71.111 99.776 49.741 49.983 94.852 
717 87.665 54.898 77.235 51.639 41.075 61.459 
718 16.330 71.595 0.85939 16.553 30.201 7.1740 
719 35.300 79.117 32.908 27.036 40.887 23.465 
720 28.667 65.599 9.3944 16.642 26.325 9.4627 
721 6.4435 54.089 70.225 22.213 24.430 50.786 
722 61.839 6.8281 38.810 18.577 10.969 21.852 
723 26.820 89.870 94.786 49.409 64.330 87.829 
724 5.7523 92.776 20.962 28.198 53.635 16.391 
725 75.073 63.309 7.8752 31.014 33.083 9.2829 
726 61.102 20.846 50.693 22.493 15.044 31.721 
727 22.212 92.446 35.502 32.257 55.443 25.412 
728 92.086 35.290 8.3735 36.097 25.735 6.9211 
729 6.1371 56.812 8.6847 10.966 19.171 7.5382 
730 17.496 95.134 90.968 49.346 68.920 82.217 
731 97.652 22.856 91.040 60.160 37.552 77.161 
732 49.838 56.677 94.927 39.940 36.622 85.089 
733 52.347 66.189 89.979 42.017 41.865 80.138 
734 9.2025 61.070 60.052 21.860 27.192 41.975 
735 91.322 33.889 95.067 56.683 38.267 83.893 
736 35.535 50.421 47.701 19.871 21.457 31.288 
737 90.687 67.765 92.424 64.278 55.386 83.874 
738 23.140 27.979 7.2528 6.8776 8.0368 5.5161 
739 74.571 37.346 94.340 45.673 32.642 84.220 
740 94.499 74.711 82.469 66.628 60.799 70.815 
741 43.662 60.242 6.7089 17.777 24.122 8.3917 
742 94.229 53.959 43.646 47.709 37.970 28.591 
743 88.819 11.383 66.503 41.082 24.314 45.178 
744 32.047 21.909 62.334 17.710 12.774 41.917 
745 54.950 92.541 82.626 52.409 67.307 71.757 
746 71.956 56.212 58.905 36.201 32.498 41.218 
747 99.325 70.902 23.244 56.247 51.485 16.074 
748 90.147 23.875 23.537 34.435 22.328 12.873 
749 4.9251 37.670 45.258 12.308 13.287 27.425 
750 92.003 4.3641 46.508 38.261 21.847 27.639 
751 8.0287 68.481 36.597 19.261 29.649 24.360 
752 94.712 55.380 27.877 45.562 37.335 17.795 
753 59.036 41.793 22.693 19.719 18.315 14.378 
754 75.085 4.1457 81.543 36.353 21.025 63.926 
755 63.301 73.580 81.794 45.644 48.054 69.274 
756 87.889 97.159 72.707 69.546 81.313 59.519 
757 39.453 9.5152 91.318 27.676 17.455 76.343 
758 26.353 18.572 94.841 27.252 18.813 81.400 
759 19.325 8.4249 4.4960 3.6780 3.2977 3.1422 
760 14.945 80.063 53.214 28.479 42.728 37.293 
761 56.393 7.7606 18.733 13.113 8.1982 9.3247 
762 53.296 91.987 40.941 40.188 59.709 30.081 
763 91.714 5.4089 17.461 32.739 18.600 8.8950 
764 35.214 69.883 47.511 25.847 33.985 32.131 
765 54.174 65.046 39.976 27.029 31.717 26.750 
766 0.48739 73.380 13.583 17.146 31.402 11.413 
767 45.038 24.464 90.440 30.361 21.066 76.590 
768 63.657 41.354 57.623 28.303 23.124 38.857 
769 60.349 99.318 73.525 55.740 75.797 61.025 
770 45.802 53.303 31.659 19.560 22.101 20.113 
771 66.010 80.362 74.383 47.158 53.549 60.661 
772 23.949 64.714 91.592 35.744 37.820 80.816 
773 74.347 9.4171 54.078 28.070 16.345 34.251 
774 92.529 91.743 63.785 66.917 74.442 48.903 
775 27.251 94.198 55.878 38.651 61.177 41.068 
776 35.570 11.733 10.395 7.3511 5.4789 5.5025 
777 2.5649 51.038 46.451 15.206 19.211 29.151 
778 91.133 22.688 78.884 48.648 30.414 61.121 
779 9.3684 3.2632 25.712 4.7022 3.1231 12.459 
780 89.782 58.781 98.566 62.457 49.959 91.056 
781 91.178 92.619 40.078 60.888 71.743 29.205 
782 67.918 75.593 60.707 41.498 46.568 44.887 
783 21.214 7.6666 93.134 24.950 15.962 78.460 
784 16.312 15.496 27.702 6.8493 5.4504 14.293 
785 55.058 61.647 63.033 31.474 32.773 45.550 
786 64.827 43.743 39.237 25.364 22.324 24.688 
787 76.437 76.558 23.556 38.877 45.314 17.909 
788 23.505 31.715 37.321 11.967 11.722 21.909 
789 73.049 16.469 95.896 42.319 27.001 83.858 
790 86.350 91.415 7.6506 51.871 65.682 11.338 
791 75.383 18.628 65.782 32.495 20.431 45.466 
792 69.893 90.723 32.423 44.487 60.990 24.181 
793 48.410 50.555 75.728 30.652 27.772 59.527 
794 66.070 6.5086 22.487 17.575 10.364 11.548 
795 56.705 65.792 24.032 25.622 31.509 17.008 
796 76.562 34.662 51.314 32.115 23.235 33.742 
797 79.282 37.864 70.629 39.349 28.690 51.578 
798 61.860 83.501 85.092 51.106 58.699 74.225 
799 55.206 71.204 58.769 34.092 39.480 42.521 
800 41.161 67.679 77.016 34.637 38.119 62.760 
801 39.082 35.254 73.407 24.335 19.861 54.555 
802 54.232 98.131 91.703 59.199 77.528 83.947 
803 52.316 68.565 11.225 23.279 32.090 10.588 
804 13.126 31.651 17.948 7.2669 9.1576 9.8407 
805 41.211 67.640 94.245 41.390 43.143 85.281 
806 6.2691 78.009 44.653 24.924 38.879 31.562 
807 18.472 48.506 58.249 18.984 20.488 39.263 
808 91.193 95.684 89.468 77.437 84.692 81.361 
809 90.576 89.753 96.277 75.844 78.747 90.979 
810 91.055 18.181 4.8873 32.284 20.198 4.4129 
811 9.5158 57.466 44.934 17.306 22.919 29.449 
812 74.253 8.6243 35.462 24.260 13.993 20.444 
813 30.958 79.592 58.964 32.126 44.195 42.976 
814 64.297 44.200 12.447 20.891 19.995 8.8206 
815 90.387 78.022 2.1230 46.828 50.870 9.5101 
816 38.276 57.670 62.470 25.832 27.630 44.593 
817 69.306 81.298 10.013 35.624 47.398 11.487 
818 11.786 56.194 98.458 34.258 33.220 89.615 
819 37.361 92.605 63.696 41.557 61.280 48.424 
820 99.099 26.774 11.310 43.022 27.524 6.7403 
821 33.690 80.487 44.100 29.699 43.965 30.544 
822 58.378 47.696 96.771 41.101 33.819 86.540 
823 8.3100 80.971 8.1118 20.276 38.679 10.121 
824 36.053 31.424 11.914 10.170 10.394 7.8425 
825 23.960 74.365 97.709 42.278 48.224 90.775 
826 2.2643 18.895 91.763 23.678 16.303 77.047 
827 33.230 92.745 7.8538 30.513 54.787 10.936 
828 74.486 38.764 0.43818 24.170 19.939 6.0745 
829 72.293 67.732 84.511 48.845 46.233 73.378 
830 71.349 55.278 23.750 28.252 27.707 15.887 
831 10.998 19.916 82.596 20.814 15.017 64.600 
832 1.5798 33.328 79.698 20.925 17.857 61.444 
833 61.955 8.9911 90.766 34.099 20.907 75.989 
834 44.195 40.277 31.491 16.280 16.353 18.354 
835 59.060 79.425 21.320 31.825 43.896 17.169 
836 9.8214 2.9467 42.842 7.8470 4.9394 23.815 
END_DATA
CAL    

DESCRIPTOR "Argyll Device Calibration State"
ORIGINATOR "Argyll dispread"
CREATED "Tue Jan 10 16:05:54 2012"
KEYWORD "DEVICE_CLASS"
DEVICE_CLASS "DISPLAY"
KEYWORD "COLOR_REP"
COLOR_REP "RGB"

KEYWORD "RGB_I"
NUMBER_OF_FIELDS 4
BEGIN_DATA_FORMAT
RGB_I RGB_R RGB_G RGB_B 
END_DATA_FORMAT

NUMBER_OF_SETS 256
BEGIN_DATA
0.0000 0.0000 0.0000 0.0000 
3.9216e-03 3.8911e-03 3.6164e-03 3.0671e-03 
7.8431e-03 7.8126e-03 7.2786e-03 6.1799e-03 
0.011765 0.011749 0.010910 9.2622e-03 
0.015686 0.015656 0.014557 0.012375 
0.019608 0.019608 0.018189 0.015473 
0.023529 0.023514 0.021836 0.018555 
0.027451 0.027436 0.025483 0.021668 
0.031373 0.031373 0.029114 0.024765 
0.035294 0.035279 0.032746 0.027848 
0.039216 0.039216 0.036393 0.030961 
0.043137 0.043137 0.040024 0.034058 
0.047059 0.047059 0.043687 0.037140 
0.050980 0.050965 0.047318 0.040253 
0.054902 0.054887 0.050965 0.043351 
0.058824 0.058808 0.054612 0.046433 
0.062745 0.062745 0.058244 0.049546 
0.066667 0.066651 0.061891 0.052644 
0.070588 0.070588 0.065522 0.055726 
0.074510 0.074510 0.069169 0.058824 
0.078431 0.078416 0.072801 0.061936 
0.082353 0.082353 0.076448 0.065019 
0.086275 0.086275 0.080079 0.068132 
0.090196 0.090181 0.083742 0.071229 
0.094118 0.094118 0.087373 0.074311 
0.098039 0.098024 0.091005 0.077424 
0.10196 0.10195 0.094652 0.080522 
0.10588 0.10587 0.098283 0.083604 
0.10980 0.10980 0.10195 0.086717 
0.11373 0.11373 0.10556 0.089815 
0.11765 0.11765 0.10922 0.092897 
0.12157 0.12155 0.11284 0.096010 
0.12549 0.12546 0.11650 0.099092 
0.12941 0.12940 0.12013 0.10217 
0.13333 0.13332 0.12378 0.10529 
0.13725 0.13724 0.12741 0.10838 
0.14118 0.14116 0.13106 0.11147 
0.14510 0.14508 0.13471 0.11458 
0.14902 0.14902 0.13835 0.11766 
0.15294 0.15293 0.14197 0.12076 
0.15686 0.15685 0.14562 0.12387 
0.16078 0.16077 0.14928 0.12696 
0.16471 0.16469 0.15291 0.13005 
0.16863 0.16861 0.15654 0.13315 
0.17255 0.17253 0.16017 0.13626 
0.17647 0.17646 0.16384 0.13936 
0.18039 0.18038 0.16748 0.14246 
0.18431 0.18431 0.17110 0.14554 
0.18824 0.18824 0.17476 0.14864 
0.19216 0.19216 0.17841 0.15174 
0.19608 0.19606 0.18202 0.15485 
0.20000 0.20000 0.18567 0.15795 
0.20392 0.20391 0.18932 0.16104 
0.20784 0.20783 0.19297 0.16413 
0.21176 0.21176 0.19660 0.16722 
0.21569 0.21567 0.20023 0.17032 
0.21961 0.21961 0.20389 0.17343 
0.22353 0.22351 0.20752 0.17653 
0.22745 0.22745 0.21115 0.17963 
0.23137 0.23137 0.21482 0.18271 
0.23529 0.23528 0.21845 0.18581 
0.23922 0.23922 0.22208 0.18891 
0.24314 0.24314 0.22571 0.19202 
0.24706 0.24704 0.22937 0.19510 
0.25098 0.25095 0.23302 0.19820 
0.25490 0.25490 0.23664 0.20128 
0.25882 0.25881 0.24028 0.20438 
0.26275 0.26273 0.24395 0.20748 
0.26667 0.26665 0.24758 0.21059 
0.27059 0.27057 0.25122 0.21369 
0.27451 0.27451 0.25484 0.21678 
0.27843 0.27842 0.25849 0.21987 
0.28235 0.28234 0.26213 0.22296 
0.28627 0.28626 0.26577 0.22608 
0.29020 0.29018 0.26943 0.22918 
0.29412 0.29412 0.27306 0.23227 
0.29804 0.29802 0.27671 0.23536 
0.30196 0.30195 0.28035 0.23845 
0.30588 0.30588 0.28397 0.24155 
0.30980 0.30980 0.28762 0.24466 
0.31373 0.31371 0.29126 0.24776 
0.31765 0.31765 0.29491 0.25084 
0.32157 0.32155 0.29856 0.25394 
0.32549 0.32547 0.30219 0.25705 
0.32941 0.32940 0.30584 0.26014 
0.33333 0.33332 0.30947 0.26325 
0.33725 0.33725 0.31310 0.26633 
0.34118 0.34116 0.31675 0.26944 
0.34510 0.34508 0.32038 0.27254 
0.34902 0.34900 0.32404 0.27562 
0.35294 0.35293 0.32769 0.27874 
0.35686 0.35686 0.33132 0.28182 
0.36078 0.36077 0.33497 0.28493 
0.36471 0.36469 0.33858 0.28801 
0.36863 0.36863 0.34223 0.29110 
0.37255 0.37253 0.34588 0.29421 
0.37647 0.37646 0.34952 0.29729 
0.38039 0.38038 0.35317 0.30040 
0.38431 0.38430 0.35682 0.30349 
0.38824 0.38824 0.36045 0.30660 
0.39216 0.39216 0.36408 0.30970 
0.39608 0.39608 0.36771 0.31278 
0.40000 0.40000 0.37136 0.31589 
0.40392 0.40392 0.37501 0.31897 
0.40784 0.40783 0.37865 0.32209 
0.41176 0.41176 0.38230 0.32517 
0.41569 0.41569 0.38593 0.32827 
0.41961 0.41959 0.38956 0.33138 
0.42353 0.42353 0.39321 0.33446 
0.42745 0.42744 0.39684 0.33758 
0.43137 0.43137 0.40049 0.34066 
0.43529 0.43529 0.40415 0.34376 
0.43922 0.43920 0.40778 0.34687 
0.44314 0.44312 0.41143 0.34995 
0.44706 0.44706 0.41506 0.35306 
0.45098 0.45097 0.41869 0.35615 
0.45490 0.45490 0.42234 0.35926 
0.45882 0.45882 0.42597 0.36236 
0.46275 0.46273 0.42963 0.36544 
0.46667 0.46667 0.43326 0.36855 
0.47059 0.47057 0.43691 0.37163 
0.47451 0.47451 0.44056 0.37475 
0.47843 0.47842 0.44417 0.37783 
0.48235 0.48235 0.44782 0.38093 
0.48627 0.48626 0.45145 0.38404 
0.49020 0.49018 0.45510 0.38711 
0.49412 0.49410 0.45876 0.39022 
0.49804 0.49804 0.46239 0.39330 
0.50196 0.50193 0.46604 0.39641 
0.50588 0.50588 0.46967 0.39951 
0.50980 0.50979 0.47330 0.40259 
0.51373 0.51373 0.47695 0.40571 
0.51765 0.51763 0.48058 0.40879 
0.52157 0.52155 0.48425 0.41190 
0.52549 0.52547 0.48789 0.41498 
0.52941 0.52940 0.49152 0.41808 
0.53333 0.53332 0.49517 0.42119 
0.53725 0.53724 0.49879 0.42428 
0.54118 0.54116 0.50245 0.42739 
0.54510 0.54508 0.50610 0.43047 
0.54902 0.54900 0.50971 0.43359 
0.55294 0.55294 0.51336 0.43668 
0.55686 0.55685 0.51699 0.43977 
0.56078 0.56077 0.52064 0.44288 
0.56471 0.56469 0.52428 0.44596 
0.56863 0.56863 0.52792 0.44907 
0.57255 0.57253 0.53156 0.45217 
0.57647 0.57646 0.53521 0.45525 
0.58039 0.58038 0.53886 0.45837 
0.58431 0.58430 0.54250 0.46145 
0.58824 0.58824 0.54614 0.46456 
0.59216 0.59216 0.54978 0.46764 
0.59608 0.59608 0.55343 0.47074 
0.60000 0.59998 0.55706 0.47385 
0.60392 0.60391 0.56071 0.47694 
0.60784 0.60783 0.56432 0.48005 
0.61176 0.61175 0.56797 0.48312 
0.61569 0.61567 0.57162 0.48623 
0.61961 0.61961 0.57525 0.48933 
0.62353 0.62351 0.57890 0.49241 
0.62745 0.62745 0.58254 0.49552 
0.63137 0.63137 0.58618 0.49860 
0.63529 0.63529 0.58984 0.50170 
0.63922 0.63920 0.59347 0.50480 
0.64314 0.64312 0.59712 0.50790 
0.64706 0.64704 0.60076 0.51101 
0.65098 0.65097 0.60439 0.51411 
0.65490 0.65489 0.60804 0.51719 
0.65882 0.65882 0.61167 0.52029 
0.66275 0.66275 0.61532 0.52340 
0.66667 0.66667 0.61895 0.52650 
0.67059 0.67057 0.62258 0.52959 
0.67451 0.67451 0.62623 0.53268 
0.67843 0.67842 0.62986 0.53577 
0.68235 0.68234 0.63351 0.53889 
0.68627 0.68626 0.63716 0.54199 
0.69020 0.69018 0.64079 0.54508 
0.69412 0.69412 0.64445 0.54817 
0.69804 0.69802 0.64810 0.55126 
0.70196 0.70195 0.65173 0.55438 
0.70588 0.70587 0.65537 0.55747 
0.70980 0.70979 0.65901 0.56057 
0.71373 0.71373 0.66265 0.56365 
0.71765 0.71765 0.66630 0.56675 
0.72157 0.72155 0.66993 0.56986 
0.72549 0.72547 0.67356 0.57296 
0.72941 0.72941 0.67720 0.57604 
0.73333 0.73332 0.68084 0.57914 
0.73725 0.73724 0.68449 0.58222 
0.74118 0.74118 0.68812 0.58534 
0.74510 0.74508 0.69177 0.58843 
0.74902 0.74900 0.69541 0.59152 
0.75294 0.75293 0.69906 0.59461 
0.75686 0.75686 0.70271 0.59771 
0.76078 0.76077 0.70634 0.60082 
0.76471 0.76469 0.70999 0.60392 
0.76863 0.76861 0.71363 0.60700 
0.77255 0.77253 0.71727 0.61010 
0.77647 0.77646 0.72091 0.61321 
0.78039 0.78038 0.72453 0.61631 
0.78431 0.78430 0.72818 0.61941 
0.78824 0.78824 0.73182 0.62249 
0.79216 0.79214 0.73545 0.62559 
0.79608 0.79608 0.73910 0.62870 
0.80000 0.79998 0.74273 0.63180 
0.80392 0.80392 0.74638 0.63490 
0.80784 0.80784 0.75003 0.63798 
0.81176 0.81175 0.75367 0.64108 
0.81569 0.81567 0.75732 0.64419 
0.81961 0.81961 0.76097 0.64729 
0.82353 0.82353 0.76460 0.65037 
0.82745 0.82745 0.76825 0.65347 
0.83137 0.83136 0.77188 0.65657 
0.83529 0.83528 0.77552 0.65968 
0.83922 0.83920 0.77916 0.66278 
0.84314 0.84312 0.78279 0.66586 
0.84706 0.84706 0.78643 0.66896 
0.85098 0.85098 0.79007 0.67205 
0.85490 0.85490 0.79371 0.67517 
0.85882 0.85881 0.79736 0.67825 
0.86275 0.86275 0.80099 0.68133 
0.86667 0.86665 0.80465 0.68443 
0.87059 0.87059 0.80830 0.68753 
0.87451 0.87449 0.81193 0.69064 
0.87843 0.87843 0.81558 0.69374 
0.88235 0.88235 0.81921 0.69682 
0.88627 0.88627 0.82286 0.69992 
0.89020 0.89018 0.82650 0.70303 
0.89412 0.89410 0.83014 0.70613 
0.89804 0.89802 0.83377 0.70922 
0.90196 0.90196 0.83740 0.71231 
0.90588 0.90587 0.84105 0.71540 
0.90980 0.90979 0.84469 0.71852 
0.91373 0.91371 0.84833 0.72161 
0.91765 0.91763 0.85197 0.72471 
0.92157 0.92155 0.85560 0.72779 
0.92549 0.92547 0.85927 0.73089 
0.92941 0.92941 0.86291 0.73400 
0.93333 0.93333 0.86654 0.73710 
0.93725 0.93724 0.87019 0.74018 
0.94118 0.94116 0.87384 0.74328 
0.94510 0.94510 0.87747 0.74638 
0.94902 0.94900 0.88112 0.74949 
0.95294 0.95294 0.88473 0.75259 
0.95686 0.95686 0.88838 0.75567 
0.96078 0.96077 0.89203 0.75877 
0.96471 0.96469 0.89566 0.76187 
0.96863 0.96861 0.89931 0.76498 
0.97255 0.97253 0.90294 0.76808 
0.97647 0.97647 0.90658 0.77116 
0.98039 0.98039 0.91023 0.77424 
0.98431 0.98431 0.91388 0.77734 
0.98824 0.98822 0.91752 0.78045 
0.99216 0.99214 0.92116 0.78355 
0.99608 0.99606 0.92480 0.78663 
1.0000 1.0000 0.92845 0.78973 
END_DATA
