CTI3   

DESCRIPTOR "Argyll Calibration Target chart information 3"
ORIGINATOR "Argyll dispread"
CREATED "Tue Jan 10 15:11:27 2012"
KEYWORD "DEVICE_CLASS"
DEVICE_CLASS "DISPLAY"
KEYWORD "COLOR_REP"
COLOR_REP "RGB_XYZ"
KEYWORD "TARGET_INSTRUMENT"
TARGET_INSTRUMENT "Hughski ColorHug"
KEYWORD "INSTRUMENT_TYPE_SPECTRAL"
INSTRUMENT_TYPE_SPECTRAL "NO"
KEYWORD "LUMINANCE_XYZ_CDM2"
LUMINANCE_XYZ_CDM2 "189.867523 190.792343 261.579987"
KEYWORD "NORMALIZED_TO_Y_100"
NORMALIZED_TO_Y_100 "YES"

NUMBER_OF_FIELDS 7
BEGIN_DATA_FORMAT
SAMPLE_ID RGB_R RGB_G RGB_B XYZ_X XYZ_Y XYZ_Z 
END_DATA_FORMAT

NUMBER_OF_SETS 836
BEGIN_DATA
1 100.00 100.00 100.00 99.515 100.00 137.10 
2 100.00 100.00 100.00 99.515 100.00 137.10 
3 100.00 100.00 100.00 99.515 100.00 137.10 
4 100.00 100.00 100.00 99.692 100.07 137.03 
5 33.330 32.622 30.968 7.7772 7.8043 9.6347 
6 100.00 0.0000 100.00 67.990 29.308 125.89 
7 100.00 100.00 0.0000 67.865 89.970 11.231 
8 0.0000 100.00 100.00 63.376 81.084 136.83 
9 0.0000 100.00 0.0000 31.882 71.317 11.404 
10 0.0000 0.0000 100.00 32.161 10.432 126.17 
11 100.00 0.0000 0.0000 36.363 19.570 3.4349e+04 
12 0.0000 0.0000 0.0000 0.46631 0.30236 0.99122 
13 0.0000 52.455 100.00 39.791 27.246 130.47 
14 100.00 0.0000 50.300 42.490 20.795 24.385 
15 100.00 54.739 100.00 76.890 48.358 130.51 
16 100.00 52.128 0.0000 43.768 35.244 4.2355 
17 0.0000 0.0000 46.181 5.2402 1.5329 19.495 
18 0.0000 51.141 0.0000 7.5150 15.351 5.1952 
19 0.0000 100.00 51.348 37.876 72.571 35.327 
20 100.00 100.00 52.037 74.438 91.689 37.285 
21 49.216 0.0000 0.0000 7.2249 3.8845 1.3780 
22 56.159 100.00 0.0000 41.719 76.147 12.363 
23 49.226 100.00 100.00 70.799 84.845 137.62 
24 44.487 0.0000 100.00 37.323 12.902 126.88 
25 100.00 44.498 52.029 48.154 32.145 29.159 
26 48.926 48.544 100.00 45.766 28.216 130.67 
27 51.368 100.00 47.250 44.832 76.358 32.410 
28 49.893 0.0000 49.033 12.997 5.2979 23.361 
29 53.109 51.372 0.0000 15.870 20.046 5.2527 
30 0.0000 58.587 53.943 17.166 23.693 33.027 
31 100.00 28.065 100.00 69.797 33.209 127.01 
32 0.0000 0.0000 72.874 14.723 4.0874 57.718 
33 0.0000 26.758 100.00 33.635 14.001 126.91 
34 0.0000 25.426 0.0000 1.7608 3.3161 1.4738 
35 72.508 0.0000 100.00 49.843 19.555 126.89 
36 100.00 27.395 0.0000 38.124 22.886 1.3141 
37 74.470 100.00 100.00 83.141 91.429 137.70 
38 100.00 0.0000 25.728 37.606 19.886 5.0809 
39 73.862 0.0000 0.0000 19.367 10.106 1.7103 
40 100.00 100.00 25.402 69.132 90.578 16.294 
41 0.0000 75.751 100.00 49.875 49.631 134.78 
42 0.0000 75.172 0.0000 17.489 38.059 8.7027 
43 0.0000 100.00 25.864 33.279 71.410 16.748 
44 100.00 0.0000 74.801 52.129 23.612 63.051 
45 0.0000 100.00 75.421 47.359 75.125 73.549 
46 24.577 0.0000 0.0000 2.0394 1.1223 0.84011 
47 26.321 100.00 0.0000 33.742 71.884 11.978 
48 100.00 75.835 0.0000 54.052 57.992 8.2905 
49 100.00 100.00 77.061 84.632 94.679 78.261 
50 71.263 100.00 0.0000 49.563 80.439 12.125 
51 0.0000 0.0000 15.614 0.73244 0.24262 2.2350 
52 0.0000 30.049 70.936 15.421 8.1278 54.556 
53 100.00 77.691 100.00 87.153 71.298 135.09 
54 24.486 100.00 100.00 65.082 81.874 137.30 
55 100.00 62.784 31.909 49.893 44.784 14.402 
56 29.552 0.0000 100.00 34.111 11.684 125.69 
57 32.980 70.921 100.00 50.258 45.659 133.92 
58 0.0000 27.681 40.241 5.4701 4.7856 15.003 
59 67.901 71.021 100.00 63.243 52.614 134.92 
60 28.154 100.00 67.829 45.933 75.240 59.911 
61 71.637 100.00 70.001 62.842 83.848 64.855 
62 58.822 58.763 53.586 28.269 29.789 33.627 
63 33.466 30.480 0.0000 5.5546 6.2987 2.7681 
64 100.00 73.795 71.277 67.063 59.833 64.518 
65 68.394 29.692 0.0000 18.118 13.051 2.0773 
66 70.399 0.0000 29.039 18.506 9.3926 7.3250 
67 28.078 0.0000 26.956 3.9035 1.5180 7.1757 
68 28.532 72.339 0.0000 18.411 36.237 8.9859 
69 100.00 30.941 26.496 40.103 24.744 6.7588 
70 34.597 0.0000 73.611 18.203 5.7311 60.496 
71 71.573 0.0000 72.408 32.051 13.071 58.588 
72 0.0000 71.029 29.412 17.302 34.092 14.870 
73 68.386 75.008 0.0000 33.421 46.292 9.6496 
74 68.088 27.309 100.00 49.389 22.164 127.94 
75 100.00 26.457 73.749 53.157 26.685 62.290 
76 74.344 100.00 27.392 53.001 81.655 18.310 
77 27.558 100.00 28.197 35.452 72.502 18.210 
78 31.196 27.465 100.00 36.205 15.332 127.53 
79 0.0000 75.521 72.824 32.414 42.994 66.508 
80 0.0000 50.930 25.553 8.8259 16.059 9.5613 
81 32.060 33.584 64.033 16.151 10.498 43.578 
82 81.666 55.380 0.0000 32.763 30.960 6.3128 
83 68.257 32.751 58.286 27.003 16.147 36.316 
84 0.0000 55.248 81.585 27.909 24.258 80.374 
85 73.781 52.099 100.00 58.492 36.687 131.44 
86 100.00 50.537 82.952 63.665 40.144 85.034 
87 23.550 0.0000 50.439 7.7468 2.6291 24.037 
88 31.335 62.746 31.114 16.325 27.200 14.748 
89 100.00 18.310 49.418 42.583 21.964 23.672 
90 26.498 48.404 0.0000 8.3732 14.437 4.3219 
91 47.910 100.00 85.744 60.137 80.739 98.020 
92 71.829 47.313 31.811 26.081 22.866 12.997 
93 31.304 64.132 69.316 27.831 31.712 57.719 
94 80.403 0.0000 54.321 29.641 13.638 29.771 
95 18.455 50.036 100.00 39.764 25.983 129.97 
96 50.653 100.00 16.345 39.925 75.157 13.284 
97 80.121 100.00 52.261 61.033 84.688 37.652 
98 0.0000 22.540 19.289 2.0697 2.5422 4.3920 
99 100.00 75.273 46.886 59.004 58.963 29.431 
100 0.0000 78.618 56.625 27.226 44.973 39.884 
101 51.137 80.627 100.00 60.088 59.782 136.28 
102 48.446 0.0000 17.864 7.6241 3.7949 3.2436 
103 100.00 50.023 21.211 44.187 34.148 7.9538 
104 50.115 20.118 0.0000 8.4711 5.8281 1.8771 
105 58.099 72.426 33.158 29.318 41.471 18.310 
106 19.364 100.00 50.197 38.608 73.142 34.851 
107 50.683 19.177 100.00 40.166 15.958 127.05 
108 53.370 0.0000 81.576 27.453 9.7736 77.124 
109 47.768 76.245 0.0000 24.783 42.821 9.5461 
110 0.0000 18.927 55.503 8.4635 3.7068 30.181 
111 0.0000 13.277 0.0000 0.82266 0.92701 1.1824 
112 72.862 72.473 75.625 50.843 49.568 73.008 
113 100.00 13.904 0.0000 36.829 19.873 0.83161 
114 86.349 0.0000 100.00 58.241 24.349 126.25 
115 100.00 41.941 100.00 72.696 39.276 128.52 
116 100.00 81.785 16.464 57.755 65.664 11.843 
117 0.0000 44.063 52.596 11.969 12.645 29.244 
118 0.0000 0.0000 58.917 8.7053 2.5408 33.973 
119 59.250 24.551 29.789 14.527 9.4452 8.6621 
120 82.730 82.874 100.00 78.199 71.377 137.33 
121 80.039 0.0000 12.618 22.846 12.078 1.7774 
122 60.957 47.729 77.817 35.644 24.641 73.049 
123 100.00 0.0000 38.618 39.382 20.083 12.809 
124 0.0000 40.090 100.00 36.177 19.444 128.24 
125 0.0000 15.283 82.322 19.834 6.6209 77.271 
126 17.592 81.726 100.00 54.065 57.742 136.09 
127 100.00 14.130 100.00 68.369 30.225 125.90 
128 15.261 100.00 82.059 51.644 76.575 88.870 
129 47.770 79.418 60.389 35.918 49.828 46.072 
130 18.768 16.429 0.0000 1.7335 2.0531 0.97227 
131 55.634 100.00 65.763 52.402 78.918 56.522 
132 100.00 100.00 38.541 70.952 90.874 23.325 
133 17.421 0.0000 83.497 20.985 6.0957 80.514 
134 17.237 16.758 100.00 33.251 12.113 126.22 
135 0.0000 15.067 30.039 2.5118 1.7383 7.9322 
136 0.0000 0.0000 86.505 22.119 6.4055 87.665 
137 75.736 72.799 50.020 42.490 47.824 33.465 
138 100.00 83.323 85.529 79.968 74.053 96.425 
139 100.00 100.00 64.894 78.724 92.810 55.316 
140 81.980 84.914 0.0000 46.821 63.072 11.015 
141 0.0000 63.757 15.490 12.780 26.792 8.1036 
142 49.514 66.135 100.00 52.371 43.255 133.70 
143 100.00 0.0000 61.862 46.088 21.773 39.485 
144 24.308 45.410 49.831 13.212 14.432 26.693 
145 15.963 0.0000 17.047 1.4199 0.71419 2.4556 
146 87.497 100.00 100.00 90.785 95.359 137.71 
147 52.099 25.003 75.752 25.505 11.620 65.069 
148 14.909 81.162 0.0000 21.255 45.153 10.701 
149 0.0000 34.792 14.626 3.8108 6.8650 4.0131 
150 48.390 45.075 22.552 13.334 15.731 7.6613 
151 83.545 65.965 100.00 69.941 52.214 133.29 
152 16.226 62.345 0.0000 12.286 25.226 6.6109 
153 63.222 0.0000 14.914 13.208 6.7959 2.9366 
154 80.449 13.446 0.0000 23.070 12.732 1.3467 
155 83.917 41.562 0.0000 29.324 22.743 3.6639 
156 100.00 60.448 46.300 52.088 43.885 25.849 
157 15.584 0.0000 34.795 3.3521 1.1733 10.627 
158 17.144 65.121 100.00 45.587 38.895 133.16 
159 83.602 55.334 62.667 43.599 34.651 45.495 
160 0.0000 82.190 14.220 21.749 46.719 12.194 
161 25.132 74.856 50.616 25.259 40.981 32.562 
162 0.0000 13.769 100.00 32.363 11.280 126.25 
163 87.181 0.0000 0.0000 27.078 14.428 0.85089 
164 0.0000 100.00 39.190 34.768 71.859 23.751 
165 78.047 65.914 19.865 35.586 39.740 11.257 
166 100.00 63.961 15.865 48.786 45.737 7.7528 
167 100.00 45.955 36.032 44.758 32.015 14.147 
168 15.926 100.00 16.890 32.945 71.406 13.668 
169 41.459 100.00 0.0000 36.734 73.746 11.572 
170 48.707 37.288 48.139 16.145 12.798 24.604 
171 83.381 100.00 13.285 56.986 84.200 12.911 
172 78.129 25.303 75.621 38.889 18.814 65.221 
173 12.396 0.0000 0.0000 0.66651 0.66446 0.73868 
174 37.607 48.336 83.346 30.400 21.143 84.908 
175 35.588 15.356 0.0000 4.1480 3.1219 1.1456 
176 61.245 100.00 100.00 75.651 87.275 137.78 
177 100.00 67.290 87.195 73.201 55.825 99.719 
178 0.0000 0.0000 30.615 2.3094 0.89090 7.8449 
179 35.187 81.789 83.323 44.926 54.042 90.941 
180 39.525 80.194 22.879 25.864 46.793 14.529 
181 50.634 34.593 0.0000 10.788 10.131 3.2894 
182 14.175 100.00 63.146 42.118 73.921 51.343 
183 83.493 17.728 34.574 27.885 15.048 11.023 
184 23.463 22.014 79.943 20.965 8.2446 73.580 
185 18.066 31.847 0.0000 3.6945 5.7313 2.1935 
186 87.201 100.00 81.361 78.123 90.730 88.107 
187 0.0000 100.00 87.950 54.755 77.443 103.50 
188 34.476 17.888 46.220 8.9009 4.5453 20.168 
189 18.277 0.0000 67.390 12.923 3.9269 47.457 
190 100.00 87.972 0.0000 60.881 73.685 10.894 
191 82.925 34.850 100.00 59.369 29.719 128.50 
192 0.0000 88.016 100.00 57.105 66.049 136.88 
193 36.104 85.655 100.00 58.756 64.313 136.34 
194 60.981 0.0000 0.0000 12.077 6.3144 1.5465 
195 51.466 61.826 78.106 36.565 33.568 75.744 
196 78.427 31.983 22.175 25.169 17.023 6.5800 
197 66.017 44.321 0.0000 20.155 19.062 3.7834 
198 83.941 0.0000 84.177 45.295 18.987 84.051 
199 20.158 46.612 23.269 8.1299 13.647 7.9813 
200 0.0000 100.00 62.618 41.474 73.549 50.426 
201 33.832 0.0000 13.933 3.5474 2.0356 1.9033 
202 100.00 17.286 16.322 37.297 20.660 2.1627 
203 0.0000 42.204 83.926 25.159 15.855 83.367 
204 0.0000 87.774 0.0000 24.695 54.185 10.980 
205 64.988 0.0000 59.017 22.666 9.7150 35.916 
206 14.677 0.0000 100.00 32.361 10.794 125.91 
207 88.934 82.673 35.021 52.379 63.010 20.709 
208 0.0000 63.778 100.00 44.497 37.214 133.10 
209 83.429 17.674 100.00 57.181 24.416 127.03 
210 30.899 100.00 85.668 55.816 78.518 97.629 
211 83.680 0.0000 41.016 28.393 13.822 16.059 
212 100.00 63.515 0.0000 48.117 44.588 6.6743 
213 85.074 69.987 0.0000 40.583 45.709 8.6652 
214 20.801 45.524 69.018 19.410 16.205 53.414 
215 21.382 82.482 73.017 37.450 52.324 68.827 
216 100.00 15.128 64.249 47.422 22.773 43.673 
217 36.522 0.0000 58.427 12.162 4.2205 34.219 
218 22.466 81.296 33.007 24.454 47.363 18.854 
219 62.531 87.152 0.0000 36.991 60.183 11.416 
220 84.120 85.397 67.886 60.589 68.218 59.477 
221 18.870 27.336 45.389 7.5554 5.3505 20.568 
222 66.439 100.00 14.444 47.392 79.018 13.374 
223 41.636 22.147 19.003 6.9220 4.9721 4.5606 
224 61.271 100.00 81.940 63.255 82.587 89.425 
225 86.013 100.00 0.0000 58.293 85.080 11.516 
226 37.570 0.0000 0.0000 4.1228 2.3441 0.98399 
227 100.00 16.132 84.102 57.817 26.125 84.396 
228 0.0000 100.00 13.619 32.015 71.287 12.026 
229 38.905 100.00 56.471 43.663 74.948 42.899 
230 100.00 15.382 34.563 39.384 20.897 10.438 
231 36.656 14.908 100.00 36.130 12.999 127.05 
232 0.0000 62.593 66.608 23.414 28.493 52.279 
233 66.347 12.528 100.00 46.743 18.500 126.83 
234 100.00 43.375 69.233 54.084 33.493 54.296 
235 100.00 56.360 61.236 54.901 41.437 43.132 
236 0.0000 86.194 44.955 28.067 53.209 28.541 
237 64.527 87.262 100.00 70.240 71.811 137.30 
238 34.411 0.0000 42.471 7.3437 2.8904 16.411 
239 80.230 59.707 85.120 54.628 40.666 92.062 
240 20.625 19.056 14.791 2.5100 2.3953 2.5110 
241 15.341 34.221 100.00 35.416 17.124 127.87 
242 36.777 0.0000 87.905 27.020 8.7634 92.898 
243 34.598 56.247 100.00 44.365 31.869 131.27 
244 20.860 67.629 17.418 15.738 30.981 10.093 
245 44.958 60.843 18.054 17.491 26.982 9.0015 
246 37.421 60.193 0.0000 14.496 24.962 6.3571 
247 84.011 33.849 42.612 32.092 20.524 18.932 
248 17.241 60.339 37.743 14.681 24.689 17.805 
249 50.650 17.261 53.278 14.998 6.9628 28.287 
250 45.505 48.926 65.152 23.667 20.475 47.568 
251 44.567 84.081 39.649 31.714 53.638 24.464 
252 100.00 86.339 72.054 74.379 75.636 67.595 
253 68.140 61.135 0.0000 26.951 31.709 7.5768 
254 17.930 66.986 81.403 33.505 35.545 83.312 
255 39.242 60.215 48.926 20.625 27.001 28.531 
256 20.099 18.770 62.967 12.126 4.9199 41.355 
257 34.553 100.00 14.582 35.427 72.867 12.967 
258 87.345 0.0000 66.694 38.514 17.249 46.727 
259 0.0000 43.714 39.842 8.7487 11.770 16.528 
260 100.00 37.705 13.955 40.220 27.020 3.4971 
261 31.265 86.993 0.0000 26.707 54.044 11.318 
262 51.402 82.661 81.338 48.495 57.027 87.245 
263 100.00 100.00 12.984 68.021 90.232 11.675 
264 0.0000 37.859 0.0000 3.9472 8.1342 2.6041 
265 62.092 58.215 100.00 54.609 38.879 132.75 
266 86.186 100.00 64.100 68.708 87.425 54.092 
267 100.00 35.251 85.898 61.227 32.266 88.914 
268 63.182 89.992 41.974 42.595 64.939 27.040 
269 13.504 100.00 0.0000 32.059 71.386 11.329 
270 100.00 0.0000 13.228 36.629 19.511 1.0842 
271 63.881 40.826 100.00 49.828 26.578 129.63 
272 69.387 84.838 20.792 40.508 59.656 14.848 
273 0.0000 70.279 45.136 19.720 33.847 25.885 
274 79.094 64.754 40.908 38.359 39.635 22.124 
275 62.385 54.099 17.396 21.551 24.859 7.6231 
276 64.408 14.621 0.0000 14.163 8.0216 2.0303 
277 70.028 15.606 44.651 21.663 11.174 18.885 
278 0.0000 63.544 0.0000 12.111 25.642 7.0251 
279 83.475 47.274 20.502 31.640 26.232 7.4469 
280 55.866 0.0000 32.671 11.772 5.7745 9.4706 
281 58.007 0.0000 100.00 42.376 15.694 126.80 
282 100.00 0.0000 87.698 59.393 25.960 92.376 
283 0.0000 13.792 67.215 12.128 4.2629 46.777 
284 84.123 17.001 58.549 34.036 16.564 35.389 
285 59.579 32.873 15.966 14.555 11.850 4.0823 
286 10.410 32.998 28.659 4.7632 6.4630 7.8482 
287 17.231 40.031 85.650 26.821 15.403 89.615 
288 37.568 41.561 10.108 8.4726 11.688 3.4228 
289 0.0000 69.015 85.092 35.665 37.630 91.732 
290 14.442 100.00 36.187 34.723 72.088 21.736 
291 100.00 40.549 0.0000 40.643 28.037 2.8138 
292 82.143 45.435 78.429 47.007 29.221 73.874 
293 52.674 0.0000 67.300 20.169 7.6185 48.317 
294 0.0000 87.868 66.793 36.177 57.590 56.499 
295 86.530 100.00 40.524 62.223 85.905 26.645 
296 71.777 85.586 67.232 53.276 64.134 59.491 
297 43.216 100.00 31.671 39.197 74.415 19.521 
298 39.245 32.908 85.845 28.850 14.099 88.756 
299 0.0000 45.662 67.543 17.346 15.118 50.041 
300 12.161 100.00 100.00 63.576 81.446 136.58 
301 67.049 0.0000 85.516 36.543 13.725 87.549 
302 100.00 89.041 100.00 93.290 85.550 136.79 
303 20.246 60.698 56.526 19.921 26.222 37.300 
304 52.177 55.457 40.416 20.629 24.067 20.213 
305 72.617 87.018 83.932 62.941 68.872 93.238 
306 40.512 16.723 66.475 16.936 6.5933 47.641 
307 68.507 49.232 50.605 28.952 24.244 29.252 
308 65.622 100.00 54.525 53.212 80.360 40.421 
309 54.115 37.240 66.394 23.869 15.134 48.820 
310 100.00 76.138 31.267 56.140 58.713 16.906 
311 54.728 65.623 0.0000 22.089 32.712 7.2547 
312 63.126 12.526 64.370 23.623 9.9552 43.142 
313 72.827 18.080 23.704 20.349 11.452 6.3867 
314 23.268 15.278 34.947 4.7732 2.7013 10.712 
315 87.648 68.954 59.645 51.058 48.133 44.266 
316 0.0000 85.595 85.198 44.811 57.626 95.749 
317 35.798 84.371 69.210 38.980 55.000 61.920 
318 36.062 47.494 35.919 12.411 15.596 14.830 
319 86.083 36.277 59.152 38.464 23.352 37.447 
320 58.210 100.00 30.361 44.448 77.083 18.845 
321 46.745 14.614 32.317 8.8490 4.7891 9.3421 
322 81.573 73.869 86.954 63.339 56.077 100.14 
323 85.991 49.387 48.206 38.679 29.725 26.700 
324 28.062 87.906 19.654 27.847 56.467 14.068 
325 68.992 17.993 85.124 38.209 15.715 86.685 
326 100.00 66.147 100.00 81.442 58.549 133.04 
327 33.358 64.806 84.517 36.760 34.907 91.262 
328 41.351 17.736 80.522 24.110 9.0707 75.648 
329 100.00 100.00 88.719 91.872 96.735 107.76 
330 66.336 0.0000 44.320 19.310 8.7133 19.528 
331 64.850 67.090 12.293 27.923 36.817 9.3892 
332 15.262 31.268 63.277 13.089 8.0868 41.808 
333 15.008 43.663 37.300 8.5266 11.929 14.588 
334 0.0000 57.895 38.078 13.035 22.021 17.811 
335 66.599 58.458 67.871 37.231 32.942 54.612 
336 59.191 18.651 15.215 12.548 7.5874 3.2174 
337 66.781 31.140 84.629 38.507 18.703 86.739 
338 88.033 85.158 52.140 57.429 67.750 37.075 
339 36.882 100.00 100.00 67.165 83.096 137.45 
340 26.102 33.094 17.006 5.3146 6.8076 4.3965 
341 56.309 36.861 35.862 16.116 13.334 13.600 
342 45.839 65.587 67.033 30.824 34.388 54.942 
343 83.709 81.172 16.406 46.008 58.383 12.697 
344 0.0000 48.132 13.005 6.9563 13.879 4.9167 
345 87.176 50.021 100.00 65.955 39.577 130.85 
346 51.219 84.244 13.730 30.687 53.663 12.692 
347 60.606 71.415 48.406 33.199 41.554 30.745 
348 0.0000 11.359 12.718 0.79958 0.63458 1.3606 
349 86.429 49.705 33.145 35.836 29.282 13.657 
350 34.056 40.958 100.00 39.436 21.246 129.07 
351 100.00 30.557 59.628 47.586 26.448 37.684 
352 88.497 26.902 13.449 30.014 18.325 3.0185 
353 14.167 51.980 88.218 31.369 23.482 96.543 
354 13.784 12.983 49.370 6.5951 2.3405 23.165 
355 15.018 88.441 48.062 30.914 56.907 32.101 
356 87.790 25.769 89.215 53.222 24.456 98.191 
357 0.0000 33.206 55.865 10.450 8.1627 31.563 
358 74.324 76.029 35.536 40.101 50.146 20.580 
359 65.863 57.223 42.324 28.213 29.062 22.122 
360 30.893 54.646 13.136 11.380 19.696 6.2948 
361 0.0000 34.360 28.321 4.8984 6.9185 8.8099 
362 15.443 77.087 85.116 40.546 47.182 93.948 
363 63.381 68.947 68.521 40.120 41.628 58.342 
364 69.733 27.566 42.917 22.468 13.593 18.554 
365 32.754 100.00 42.760 38.692 73.513 27.698 
366 47.096 29.481 34.829 11.099 8.7000 11.629 
367 8.5451 71.948 62.695 26.144 37.902 47.434 
368 0.0000 86.048 29.300 25.579 52.577 18.060 
369 53.697 51.572 85.367 37.900 26.581 91.599 
370 17.608 56.690 12.515 10.543 20.418 6.6500 
371 90.638 14.414 49.227 35.624 18.020 23.538 
372 63.248 63.640 89.550 49.484 40.279 104.57 
373 100.00 85.976 58.455 68.448 73.475 44.829 
374 9.8311 28.027 7.5567 2.1171 3.9408 1.6649 
375 89.831 64.313 69.506 54.045 45.598 58.424 
376 31.754 12.995 25.543 4.4810 2.3118 6.5963 
377 75.914 45.966 64.957 36.800 25.752 47.649 
378 7.5735 50.695 58.941 15.931 17.659 38.103 
379 100.00 69.835 58.912 59.724 53.681 42.500 
380 32.211 34.376 48.339 11.288 9.3970 23.756 
381 13.901 12.159 73.555 15.812 4.9547 60.144 
382 87.071 9.0280 77.653 43.624 18.968 68.651 
383 23.272 85.409 84.290 45.607 58.104 94.059 
384 93.289 39.480 26.145 36.834 25.561 8.1383 
385 65.769 59.630 30.967 27.329 30.670 15.042 
386 100.00 32.265 41.803 42.791 25.738 16.987 
387 86.568 85.281 86.961 72.823 72.330 101.29 
388 52.577 86.830 30.016 34.246 57.796 19.005 
389 47.921 40.199 76.902 27.253 17.070 68.420 
390 22.360 86.619 61.580 34.728 56.270 48.121 
391 52.232 33.601 88.787 34.951 17.487 97.555 
392 0.0000 28.523 86.267 23.793 10.336 88.160 
393 43.497 67.879 39.551 23.013 34.137 21.957 
394 39.877 45.261 0.0000 10.052 13.964 4.2912 
395 86.940 12.430 24.699 28.189 14.774 5.4695 
396 28.363 55.339 90.398 35.989 27.219 104.78 
397 39.018 70.534 57.879 27.819 37.601 41.642 
398 12.833 28.519 78.828 19.773 9.1556 71.373 
399 68.350 31.815 69.975 31.599 17.308 54.894 
400 56.520 26.226 41.626 15.397 9.4863 17.280 
401 12.938 46.218 0.0000 6.4417 12.507 3.9421 
402 8.6938 60.179 26.117 12.440 23.861 11.796 
403 51.995 89.429 96.608 63.749 70.125 130.70 
404 46.905 47.746 48.909 18.313 18.294 26.593 
405 14.352 81.814 19.479 22.546 46.868 13.215 
406 71.482 38.117 12.273 21.608 17.450 3.8436 
407 86.616 60.785 10.012 37.764 37.571 7.1114 
408 71.811 88.979 52.186 49.555 67.084 37.677 
409 43.213 100.00 72.083 51.034 77.631 67.603 
410 73.920 23.444 8.2853 20.505 12.857 1.7491 
411 40.629 85.534 53.423 34.807 55.998 37.577 
412 38.955 52.128 22.885 13.060 18.895 8.9746 
413 46.480 12.229 8.6707 6.5836 3.9977 0.80097 
414 40.855 33.301 22.309 8.6849 8.7735 6.3742 
415 76.365 66.787 61.060 43.408 42.418 45.942 
416 7.5076 12.025 20.590 1.4880 0.77768 4.2918 
417 85.930 27.031 0.0000 27.821 17.426 2.0745 
418 100.00 87.757 44.060 65.211 74.906 28.229 
419 41.543 25.624 54.896 13.564 7.5690 30.080 
420 59.533 76.669 91.789 56.178 54.047 114.00 
421 58.226 12.079 28.862 12.591 6.5447 7.6025 
422 50.514 8.8602 88.281 30.786 10.483 93.691 
423 41.983 0.0000 31.301 6.9405 3.1516 8.7840 
424 28.024 36.455 77.877 22.885 13.451 70.756 
425 12.718 41.027 11.129 4.9932 9.7157 3.3557 
426 26.194 75.573 88.088 43.115 46.558 102.02 
427 28.936 71.474 37.671 21.007 36.062 19.927 
428 90.497 74.770 26.512 48.116 54.194 14.167 
429 17.514 75.984 41.507 22.532 40.858 23.709 
430 16.621 64.069 68.891 25.771 30.782 57.397 
431 12.420 21.661 36.669 4.4002 3.2402 11.719 
432 52.915 46.814 10.465 14.575 17.032 4.7701 
433 56.979 91.194 52.490 43.716 66.569 38.440 
434 25.140 52.299 42.419 13.376 18.106 20.704 
435 25.587 6.8296 13.004 2.3055 1.0626 2.0839 
436 55.018 14.818 41.328 13.461 6.5858 16.220 
437 93.397 56.942 87.959 64.219 43.407 98.711 
438 28.374 12.057 85.683 24.093 7.9497 87.009 
439 78.265 6.7088 92.468 48.211 18.993 107.40 
440 39.694 71.314 6.3658 19.957 35.794 8.3333 
441 73.259 45.059 87.294 47.219 27.925 95.985 
442 26.381 57.692 76.454 27.910 26.543 70.211 
443 66.587 33.629 31.299 20.078 14.773 10.750 
444 88.523 74.434 46.718 50.116 53.575 29.257 
445 76.836 59.920 49.912 37.221 35.413 29.877 
446 33.152 90.418 31.148 31.093 60.075 19.493 
447 55.924 53.388 68.505 30.284 26.050 54.971 
448 77.248 91.798 41.448 52.265 72.454 27.062 
449 26.737 89.225 45.445 32.314 58.956 29.993 
450 87.642 100.00 25.942 60.756 86.077 16.754 
451 68.631 100.00 40.532 51.453 80.142 26.414 
452 14.485 50.449 49.078 13.355 17.157 26.304 
453 10.654 10.664 89.702 24.718 7.5291 96.575 
454 31.962 49.108 62.920 19.522 18.652 44.391 
455 8.6779 22.468 68.278 13.573 5.7549 49.394 
456 74.727 90.586 6.3447 45.778 67.835 12.149 
457 0.0000 12.136 44.106 4.8641 1.9150 17.452 
458 43.350 78.123 73.610 39.604 48.720 69.941 
459 10.925 11.786 9.5801 0.68960 0.95688 0.56049 
460 15.591 37.386 50.832 10.319 9.8202 26.200 
461 10.685 68.959 9.3113 14.677 31.377 8.1683 
462 92.017 72.247 12.692 46.907 51.223 9.2420 
463 89.839 77.431 73.400 62.757 60.681 69.216 
464 47.450 74.511 18.753 24.736 41.422 12.273 
465 50.097 90.816 69.461 46.874 66.223 63.212 
466 82.755 34.052 82.994 47.129 24.480 82.959 
467 46.786 72.919 85.794 44.655 45.801 95.264 
468 9.3304 90.457 73.518 41.181 62.073 70.511 
469 88.590 61.902 22.128 40.340 39.545 11.119 
470 100.00 61.262 74.222 63.061 47.702 68.703 
471 86.777 8.8992 8.4672 26.724 14.289 0.99959 
472 39.582 85.966 11.798 28.190 54.179 12.220 
473 85.958 0.0000 24.986 27.457 14.203 5.9451 
474 80.299 22.552 47.163 28.958 15.608 22.439 
475 7.2180 45.128 76.547 21.677 16.339 67.376 
476 55.989 48.521 58.428 24.902 21.463 38.576 
477 50.728 10.774 73.284 22.414 8.2743 60.087 
478 71.269 10.344 11.008 17.817 9.5780 1.6832 
479 91.768 45.194 10.385 35.933 27.518 4.6265 
480 7.8976 42.553 25.130 6.4602 10.686 8.1655 
481 54.269 55.846 25.175 19.119 24.140 11.018 
482 41.937 24.646 5.4249 6.6130 5.7461 1.6423 
483 89.502 33.423 70.991 45.252 24.927 56.630 
484 75.301 54.745 14.159 28.731 28.972 6.9868 
485 76.653 6.2202 65.750 31.779 13.959 46.162 
486 58.072 77.769 7.4688 29.665 46.999 10.556 
487 27.429 73.801 76.267 35.249 42.638 73.110 
488 39.961 56.279 74.128 29.100 26.289 66.997 
489 23.430 28.561 70.622 16.971 8.6553 54.583 
490 91.285 49.258 68.377 48.976 33.549 54.583 
491 95.591 89.122 11.382 58.981 73.989 11.696 
492 28.451 92.151 76.841 45.757 66.040 76.734 
493 26.242 26.080 53.808 10.329 6.0585 29.064 
494 15.957 92.746 24.983 29.616 61.724 16.901 
495 13.563 9.1545 61.533 10.037 3.0559 37.821 
496 13.216 24.593 54.939 8.9100 5.0158 29.319 
497 91.885 89.769 79.537 74.756 78.501 84.058 
498 100.00 88.684 29.334 63.127 75.483 17.583 
499 34.090 65.771 20.136 17.040 30.077 10.389 
500 20.961 77.373 9.9329 20.136 41.724 9.8047 
501 48.985 66.059 50.556 26.205 34.077 31.461 
502 92.409 9.0241 90.897 56.007 23.358 102.10 
503 40.340 11.090 52.408 11.250 4.5652 26.637 
504 41.367 58.198 88.277 38.142 30.461 99.308 
505 72.147 77.604 91.982 63.272 58.446 115.10 
506 12.761 67.714 50.147 20.382 32.399 31.026 
507 76.617 25.882 91.445 48.419 21.625 105.80 
508 92.734 34.742 50.285 40.139 24.193 26.574 
509 16.114 24.640 92.845 28.854 11.314 107.39 
510 22.589 72.255 61.762 27.206 38.320 46.988 
511 79.742 58.911 30.090 34.861 34.437 13.917 
512 75.000 100.00 87.265 74.054 87.485 103.37 
513 22.068 58.052 24.509 12.611 22.475 10.702 
514 29.302 20.341 8.3315 3.4627 3.1356 1.2648 
515 75.009 40.707 41.951 28.157 20.676 19.573 
516 76.599 13.357 74.764 36.643 15.874 63.614 
517 10.272 88.110 94.612 53.503 63.772 123.81 
518 34.093 23.728 89.777 28.714 11.359 97.957 
519 29.867 13.694 72.950 17.452 6.1666 59.118 
520 64.983 91.010 77.614 57.520 71.016 79.764 
521 66.135 26.770 20.928 17.341 11.567 5.6198 
522 36.207 25.309 75.344 20.563 9.3197 63.582 
523 78.931 73.018 10.687 38.600 47.598 9.1679 
524 30.391 22.415 20.277 4.5074 3.9033 4.3872 
525 11.242 82.956 64.472 32.723 51.350 52.677 
526 80.459 87.628 28.607 49.119 66.910 18.367 
527 27.707 31.870 88.315 27.922 12.994 95.245 
528 62.060 36.458 46.606 20.929 15.164 22.937 
529 29.542 11.104 53.546 9.4560 3.5760 27.558 
530 68.762 19.114 33.778 19.399 10.868 10.683 
531 59.637 48.524 31.174 19.879 20.271 12.549 
532 48.298 33.520 100.00 41.751 19.690 128.94 
533 45.598 28.163 66.475 19.626 10.357 48.047 
534 29.918 44.928 90.506 32.888 20.305 103.18 
535 78.316 92.636 77.206 65.880 77.495 78.131 
536 91.281 57.367 55.776 46.656 37.891 36.082 
537 21.692 25.080 26.495 4.2234 4.3128 6.7119 
538 74.304 63.813 94.636 60.307 45.142 121.05 
539 88.481 29.745 32.468 32.192 19.731 10.581 
540 59.486 41.236 87.042 38.747 22.097 94.108 
541 92.045 78.449 60.137 59.003 60.911 45.881 
542 61.977 24.673 6.6648 14.036 9.5073 2.4279 
543 40.162 92.786 90.522 57.058 70.690 111.49 
544 36.748 77.066 93.097 49.668 50.755 118.43 
545 20.161 69.446 29.150 17.585 32.869 14.916 
546 47.187 88.771 0.0000 31.679 58.906 11.275 
547 44.188 43.219 90.474 35.764 20.705 103.67 
548 8.9634 92.695 8.7975 27.708 61.229 11.261 
549 32.387 45.286 72.510 22.892 17.191 61.613 
550 48.879 44.876 39.601 16.020 16.239 17.550 
551 61.287 11.463 77.817 29.621 11.366 70.115 
552 25.396 43.768 11.365 7.2580 11.978 4.1049 
553 76.983 53.137 73.131 44.116 32.753 64.764 
554 43.083 65.437 28.359 20.099 31.189 14.190 
555 11.708 51.209 32.796 9.8706 16.827 12.684 
556 71.238 41.136 23.296 23.142 18.812 7.7789 
557 21.758 7.4731 22.877 2.6628 1.3587 4.9856 
558 23.721 37.471 27.997 7.0070 8.9180 9.1155 
559 10.847 0.0000 52.434 6.9062 2.0518 26.423 
560 52.184 32.794 25.185 12.097 10.354 7.3157 
561 25.164 57.264 2.5113 11.452 21.059 6.1000 
562 25.531 62.973 45.088 18.504 28.277 25.022 
563 59.406 92.015 9.9812 38.762 66.254 11.878 
564 9.0031 43.883 94.414 33.358 19.293 115.01 
565 29.380 24.618 40.510 7.5074 5.4226 15.503 
566 56.497 10.252 5.6832 10.194 5.4547 1.1501 
567 70.521 20.255 56.201 25.726 12.783 32.265 
568 81.365 40.212 31.436 29.835 21.674 11.751 
569 56.550 19.280 86.012 32.672 12.970 89.346 
570 25.096 37.115 57.433 13.603 10.930 34.991 
571 87.229 43.818 88.570 55.926 31.945 98.265 
572 9.0945 89.498 36.178 28.677 58.192 21.691 
573 60.107 91.337 22.013 39.560 66.075 15.609 
574 43.216 91.406 24.486 33.422 62.572 16.318 
575 55.315 58.321 10.243 19.610 26.362 7.0897 
576 63.269 92.590 62.685 50.619 70.748 51.650 
577 20.915 89.348 8.0709 26.829 56.962 11.447 
578 33.841 42.636 23.687 9.2521 12.187 8.0120 
579 82.320 36.054 11.955 27.321 19.450 3.4787 
580 78.197 45.345 53.373 34.109 24.929 31.659 
581 87.492 64.105 49.348 45.498 42.663 30.315 
582 80.208 74.738 68.707 52.816 53.725 59.479 
583 12.847 33.194 39.194 6.4292 6.9819 14.776 
584 15.215 55.484 78.368 26.910 24.404 74.185 
585 25.437 6.1049 39.533 5.5695 2.0368 14.104 
586 57.870 49.584 46.944 22.591 21.229 25.310 
587 67.620 65.849 53.975 35.845 38.702 35.723 
588 26.643 41.991 38.871 10.119 11.743 16.290 
589 42.800 8.7865 22.456 6.4733 3.1778 5.0822 
590 57.049 35.385 77.322 29.950 16.916 68.640 
591 36.112 43.832 54.787 15.959 14.690 32.317 
592 62.719 62.395 77.348 41.641 36.652 75.482 
593 60.706 81.416 54.884 40.353 54.168 40.151 
594 90.695 4.9508 56.719 37.443 17.503 32.941 
595 43.936 24.373 43.898 11.452 6.8833 18.932 
596 4.3825 24.210 30.612 3.5808 3.6123 8.5056 
597 53.911 79.942 42.742 33.162 50.241 26.215 
598 90.172 22.149 68.288 42.688 20.820 50.745 
599 77.586 29.345 63.000 33.517 18.125 42.733 
600 60.572 25.668 63.187 23.587 12.125 42.487 
601 97.729 10.927 74.359 51.155 23.393 62.105 
602 57.769 8.0576 53.146 17.387 7.2539 28.299 
603 77.517 92.691 61.488 58.529 74.948 50.198 
604 44.198 38.831 60.002 18.615 13.779 38.654 
605 65.034 81.736 33.440 37.463 54.611 19.673 
606 67.829 69.791 24.123 31.899 40.511 13.999 
607 25.001 99.668 13.437 33.875 71.854 12.600 
608 89.683 25.837 56.548 37.940 20.367 32.402 
609 41.656 51.246 11.867 12.680 18.306 6.2511 
610 23.720 38.131 96.840 35.482 18.173 121.57 
611 78.049 6.5915 25.803 22.871 11.713 7.0203 
612 46.116 56.291 55.290 22.857 25.073 35.551 
613 92.023 9.1483 37.844 33.533 17.142 11.872 
614 91.068 89.904 23.497 56.504 73.170 15.787 
615 76.477 27.045 32.402 24.523 15.023 10.405 
616 42.661 5.2197 80.136 23.773 7.7679 74.599 
617 6.2584 65.435 77.208 29.527 32.508 73.280 
618 89.710 95.846 52.578 64.829 82.782 38.080 
619 88.397 77.149 94.397 74.843 64.187 122.11 
620 78.888 91.034 93.609 76.271 79.548 120.88 
621 47.820 92.501 59.000 43.128 67.252 46.318 
622 23.826 47.444 80.539 26.406 18.941 78.785 
623 9.0413 12.290 37.978 3.7534 1.5690 12.833 
624 23.331 16.308 46.267 7.1277 3.3633 20.571 
625 35.756 10.704 35.900 6.3001 2.9364 10.918 
626 2.9969 77.210 88.879 42.569 47.997 103.78 
627 28.436 75.743 23.117 21.217 40.321 13.582 
628 9.0221 78.989 30.580 21.875 44.090 16.878 
629 8.8030 17.371 0.30943 1.1790 1.5517 1.3735 
630 60.160 36.719 3.7856 15.512 13.561 3.5158 
631 7.0698 90.899 57.373 34.365 60.706 43.035 
632 79.721 9.5270 45.163 27.354 13.368 19.038 
633 10.879 74.236 95.746 47.205 47.145 126.06 
634 64.217 22.086 74.373 30.089 13.625 63.654 
635 70.017 40.853 76.607 37.824 22.957 69.243 
636 4.7334 24.411 48.203 6.8898 4.3576 22.540 
637 50.973 26.358 13.005 9.6501 7.3798 3.2506 
638 2.5724 55.065 90.994 34.018 26.161 105.78 
639 90.879 45.601 57.982 43.530 29.870 37.031 
640 68.145 79.947 44.862 40.697 54.165 28.141 
641 1.4829 67.595 54.158 21.027 32.442 34.653 
642 98.031 12.492 26.865 37.208 19.648 5.9258 
643 76.470 93.209 18.886 49.272 73.204 14.595 
644 87.292 66.922 80.462 59.474 49.299 82.255 
645 10.233 96.829 47.233 35.360 68.720 31.796 
646 68.028 67.167 39.031 32.960 38.973 21.005 
647 45.312 94.998 9.2426 35.075 67.838 12.250 
648 77.970 53.709 40.015 33.345 30.112 19.286 
649 39.314 57.645 38.800 17.489 24.212 18.824 
650 57.297 82.865 67.439 44.314 56.898 59.172 
651 37.555 22.599 31.928 7.3242 5.0393 9.4766 
652 92.350 23.597 40.911 35.779 19.753 16.190 
653 9.3660 69.976 21.141 16.234 33.032 11.926 
654 51.187 19.140 23.012 9.7798 6.0508 5.9033 
655 79.397 80.212 79.858 61.136 61.552 83.463 
656 95.392 55.226 12.927 42.513 36.405 6.2935 
657 41.375 92.945 46.055 37.269 64.983 31.148 
658 45.146 82.618 89.901 52.386 58.066 109.17 
659 77.443 63.822 71.275 47.642 41.499 63.309 
660 53.973 31.254 55.289 18.579 11.717 31.712 
661 67.321 92.812 91.875 69.448 77.201 116.63 
662 39.436 37.141 40.709 11.887 11.140 17.577 
663 97.731 46.918 91.781 67.615 39.305 107.44 
664 40.993 6.1961 67.428 16.689 5.6464 48.250 
665 79.123 80.606 57.718 50.900 58.948 43.523 
666 28.913 52.537 29.968 11.954 18.049 12.828 
667 14.658 37.254 73.035 18.670 12.222 60.322 
668 82.795 16.173 87.132 47.607 20.363 92.235 
669 8.3262 91.659 83.695 47.248 65.504 91.868 
670 45.527 77.031 49.285 30.539 45.398 32.727 
671 9.0854 40.031 62.080 13.986 11.675 40.765 
672 95.919 70.219 40.212 52.136 51.471 21.957 
673 42.670 92.336 77.786 49.926 68.641 80.073 
674 94.260 40.143 78.486 54.111 31.001 72.752 
675 65.647 53.082 89.436 46.861 31.533 102.08 
676 81.521 18.364 16.183 24.757 14.200 2.6753 
677 8.4681 2.0260 9.4857 0.46631 0.30236 0.99122 
678 30.651 60.550 56.553 21.450 26.942 37.845 
679 53.483 73.043 73.646 40.163 44.818 69.014 
680 90.408 54.335 1.4985 37.813 33.267 5.8890 
681 26.668 7.7075 63.496 12.388 3.8896 41.919 
682 58.933 25.917 94.913 40.935 17.457 114.70 
683 9.8548 0.76371 72.617 14.723 4.0874 57.718 
684 47.990 75.517 31.176 26.536 42.725 17.452 
685 48.087 9.0808 60.091 15.863 6.0333 36.226 
686 10.988 21.876 19.614 2.4240 2.6815 4.2433 
687 22.598 55.646 65.078 21.311 22.903 49.077 
688 9.0697 82.142 78.531 39.028 52.315 79.858 
689 90.301 42.459 39.120 37.242 26.270 16.445 
690 47.378 36.472 11.171 10.459 10.769 3.5998 
691 49.382 1.8032 9.6600 7.4020 3.9541 1.3036 
692 1.9703 20.522 9.5307 1.5354 2.1763 1.5647 
693 81.649 69.738 31.735 40.942 45.349 16.988 
694 34.530 73.626 67.130 31.937 41.736 56.025 
695 81.659 80.940 43.479 48.788 59.405 27.294 
696 10.291 63.628 90.197 36.964 33.627 104.56 
697 9.3825 51.554 18.669 8.2936 16.179 7.0738 
698 17.762 96.201 72.191 44.662 71.048 67.043 
699 67.560 52.693 6.6256 23.339 24.392 5.6819 
700 45.853 7.7641 41.225 9.6923 4.3810 15.088 
701 10.950 73.197 73.054 31.766 40.838 67.282 
702 30.698 39.723 1.5250 6.7412 10.120 2.7904 
703 81.002 52.333 91.825 57.169 36.494 109.79 
704 51.213 8.0050 98.430 39.005 13.728 124.82 
705 5.4368 7.4372 80.307 18.498 5.1351 72.743 
706 23.483 5.5586 76.358 17.785 5.3566 64.569 
707 32.278 78.328 11.186 22.221 43.431 10.288 
708 4.5816 10.694 55.933 7.7738 2.7499 29.620 
709 89.829 62.524 36.614 43.271 41.329 17.688 
710 80.544 47.439 8.1742 29.201 25.199 4.7412 
711 52.750 18.751 64.422 19.971 8.8840 43.828 
712 62.358 2.6644 71.659 26.599 10.368 56.806 
713 64.674 45.928 67.561 31.640 22.625 52.354 
714 9.4766 33.184 90.141 27.639 13.075 100.28 
715 70.466 56.323 80.091 44.863 34.109 79.540 
716 57.237 71.111 99.776 58.060 50.337 134.72 
717 87.665 54.898 77.235 52.720 37.409 72.344 
718 16.330 71.595 0.85939 16.503 34.600 8.4278 
719 35.300 79.117 32.908 25.554 45.611 19.063 
720 28.667 65.599 9.3944 15.420 29.000 8.1861 
721 6.4435 54.089 70.225 21.512 21.794 56.616 
722 61.839 6.8281 38.810 15.651 7.3285 14.114 
723 26.820 89.870 94.786 56.168 66.758 124.05 
724 5.7523 92.776 20.962 28.552 61.634 14.636 
725 75.073 63.309 7.8752 31.900 36.279 7.7122 
726 61.102 20.846 50.693 19.187 10.027 25.686 
727 22.212 92.446 35.502 31.591 62.611 21.666 
728 92.086 35.290 8.3735 33.967 22.869 2.7256 
729 6.1371 56.812 8.6847 9.5453 19.907 5.8818 
730 17.496 95.134 90.968 55.208 72.549 112.61 
731 97.652 22.856 91.040 61.599 28.300 103.15 
732 49.838 56.677 94.927 45.509 32.501 120.62 
733 52.347 66.189 89.979 46.656 40.621 106.78 
734 9.2025 61.070 60.052 20.214 26.611 41.416 
735 91.322 33.889 95.067 61.264 30.244 116.52 
736 35.535 50.421 47.701 16.013 18.687 25.528 
737 90.687 67.765 92.424 70.597 54.208 114.37 
738 23.140 27.979 7.2528 3.6462 4.6612 2.2100 
739 74.571 37.346 94.340 51.318 26.222 115.10 
740 94.499 74.711 82.469 69.828 61.033 88.445 
741 43.662 60.242 6.7089 16.225 26.045 6.6497 
742 94.229 53.959 43.646 44.980 36.088 22.374 
743 88.819 11.383 66.503 40.045 18.454 47.612 
744 32.047 21.909 62.334 13.789 6.4242 40.152 
745 54.950 92.541 82.626 56.558 71.424 91.020 
746 71.956 56.212 58.905 35.909 31.278 40.755 
747 99.325 70.902 23.244 52.599 53.088 12.106 
748 90.147 23.875 23.537 31.719 18.301 5.8600 
749 4.9251 37.670 45.258 8.4109 9.3250 20.561 
750 92.003 4.3641 46.508 35.598 17.571 20.666 
751 8.0287 68.481 36.597 17.319 31.786 18.753 
752 94.712 55.380 27.877 43.226 36.512 11.757 
753 59.036 41.793 22.693 17.227 15.964 8.0565 
754 75.085 4.1457 81.543 38.687 15.354 78.007 
755 63.301 73.580 81.794 49.571 49.608 86.426 
756 87.889 97.159 72.707 72.452 85.911 70.646 
757 39.453 9.5152 91.318 30.216 9.6742 103.08 
758 26.353 18.572 94.841 31.047 11.072 113.42 
759 19.325 8.4249 4.4960 1.1748 0.58105 0.69382 
760 14.945 80.063 53.214 27.651 46.803 36.830 
761 56.393 7.7606 18.733 10.372 5.1959 3.7863 
762 53.296 91.987 40.941 39.435 65.761 26.509 
763 91.714 5.4089 17.461 30.757 15.948 3.0362 
764 35.214 69.883 47.511 23.378 35.560 28.589 
765 54.174 65.046 39.976 25.154 32.996 22.238 
766 0.48739 73.380 13.583 17.197 36.527 9.6680 
767 45.038 24.464 90.440 32.328 12.973 101.36 
768 63.657 41.354 57.623 25.929 18.677 36.269 
769 60.349 99.318 73.525 58.748 81.297 72.164 
770 45.802 53.303 31.659 16.300 21.048 13.381 
771 66.010 80.362 74.383 50.361 56.618 72.050 
772 23.949 64.714 91.592 40.163 36.165 110.00 
773 74.347 9.4171 54.078 26.406 12.127 28.755 
774 92.529 91.743 63.785 68.165 78.602 53.780 
775 27.251 94.198 55.878 38.280 66.935 41.747 
776 35.570 11.733 10.395 3.9688 2.5669 0.88015 
777 2.5649 51.038 46.451 12.335 17.167 23.343 
778 91.133 22.688 78.884 48.507 22.818 72.371 
779 9.3684 3.2632 25.712 1.5770 0.64827 5.6099 
780 89.782 58.781 98.566 70.827 47.188 131.71 
781 91.178 92.619 40.078 60.731 77.640 25.549 
782 67.918 75.593 60.707 42.840 49.754 46.716 
783 21.214 7.6666 93.134 28.513 8.7124 108.37 
784 16.312 15.496 27.702 2.8870 1.6848 7.2654 
785 55.058 61.647 63.033 30.810 32.133 47.482 
786 64.827 43.743 39.237 22.266 18.934 17.302 
787 76.437 76.558 23.556 40.143 50.902 14.463 
788 23.505 31.715 37.321 7.3127 6.8450 14.065 
789 73.049 16.469 95.896 48.665 19.959 118.06 
790 86.350 91.415 7.6506 53.517 73.421 11.791 
791 75.383 18.628 65.782 31.783 14.930 46.842 
792 69.893 90.723 32.423 45.344 68.296 20.131 
793 48.410 50.555 75.728 29.930 23.297 67.993 
794 66.070 6.5086 22.487 15.824 7.8983 5.5680 
795 56.705 65.792 24.032 24.421 34.224 12.211 
796 76.562 34.662 51.314 29.836 18.732 27.334 
797 79.282 37.864 70.629 39.231 23.372 56.787 
798 61.860 83.501 85.092 56.015 61.458 95.790 
799 55.206 71.204 58.769 33.960 41.260 43.984 
800 41.161 67.679 77.016 35.474 37.590 74.184 
801 39.082 35.254 73.407 22.544 13.134 61.575 
802 54.232 98.131 91.703 65.948 81.610 115.92 
803 52.316 68.565 11.225 22.608 35.055 8.9091 
804 13.126 31.651 17.948 3.6085 6.0176 3.9258 
805 41.211 67.640 94.245 47.135 41.550 119.97 
806 6.2691 78.009 44.653 23.648 42.988 26.637 
807 18.472 48.506 58.249 16.083 16.951 37.867 
808 91.193 95.684 89.468 83.616 88.478 109.18 
809 90.576 89.753 96.277 84.735 81.964 129.19 
810 91.055 18.181 4.8873 30.406 17.108 1.1540 
811 9.5158 57.466 44.934 14.612 22.669 23.421 
812 74.253 8.6243 35.462 21.899 10.837 11.495 
813 30.958 79.592 58.964 31.331 47.666 44.436 
814 64.297 44.200 12.447 19.225 18.615 4.8514 
815 90.387 78.022 2.1230 47.990 56.822 9.4837 
816 38.276 57.670 62.470 23.530 25.723 45.101 
817 69.306 81.298 10.013 37.433 54.333 11.039 
818 11.786 56.194 98.458 41.084 29.774 130.61 
819 37.361 92.605 63.696 41.691 66.231 52.852 
820 99.099 26.774 11.310 37.636 22.777 0.84095 
821 33.690 80.487 44.100 28.067 47.834 27.335 
822 58.378 47.696 96.771 47.020 28.197 123.53 
823 8.3100 80.971 8.1118 20.791 45.336 10.050 
824 36.053 31.424 11.914 6.2883 7.3551 2.6323 
825 23.960 74.365 97.709 49.957 48.374 132.37 
826 2.2643 18.895 91.763 26.633 9.4803 103.23 
827 33.230 92.745 7.8538 30.633 62.699 11.730 
828 74.486 38.764 0.43818 23.669 18.379 4.1656 
829 72.293 67.732 84.511 53.788 46.277 93.283 
830 71.349 55.278 23.750 27.648 28.418 10.661 
831 10.998 19.916 82.596 20.790 7.5180 79.075 
832 1.5798 33.328 79.698 21.087 11.163 73.708 
833 61.955 8.9911 90.766 37.750 13.927 102.30 
834 44.195 40.277 31.491 12.109 12.452 11.725 
835 59.060 79.425 21.320 32.310 49.850 14.029 
836 9.8214 2.9467 42.842 4.5518 1.3899 16.564 
END_DATA
CAL    

DESCRIPTOR "Argyll Device Calibration State"
ORIGINATOR "Argyll dispread"
CREATED "Tue Jan 10 15:11:27 2012"
KEYWORD "DEVICE_CLASS"
DEVICE_CLASS "DISPLAY"
KEYWORD "COLOR_REP"
COLOR_REP "RGB"

KEYWORD "RGB_I"
NUMBER_OF_FIELDS 4
BEGIN_DATA_FORMAT
RGB_I RGB_R RGB_G RGB_B 
END_DATA_FORMAT

NUMBER_OF_SETS 256
BEGIN_DATA
0.0000 0.052796 0.0000 0.0000 
3.9216e-03 0.053346 0.0000 1.0529e-03 
7.8431e-03 0.053910 0.0000 2.6856e-03 
0.011765 0.054490 0.0000 4.4099e-03 
0.015686 0.055146 0.0000 6.1494e-03 
0.019608 0.055833 0.0000 7.9805e-03 
0.023529 0.056580 4.8829e-04 9.8878e-03 
0.027451 0.057359 2.4414e-03 0.011887 
0.031373 0.058244 4.5319e-03 0.013962 
0.035294 0.059159 6.7597e-03 0.016098 
0.039216 0.060197 9.1402e-03 0.018372 
0.043137 0.061311 0.011704 0.020722 
0.047059 0.062531 0.014450 0.023178 
0.050980 0.063905 0.017441 0.025757 
0.054902 0.065415 0.020661 0.028458 
0.058824 0.067079 0.024155 0.031296 
0.062745 0.068971 0.027985 0.034272 
0.066667 0.071122 0.032212 0.037430 
0.070588 0.073548 0.036896 0.040772 
0.074510 0.076341 0.042054 0.044373 
0.078431 0.079591 0.047791 0.048295 
0.082353 0.083452 0.054185 0.052659 
0.086275 0.087984 0.061341 0.057527 
0.090196 0.093217 0.069200 0.062867 
0.094118 0.098955 0.077546 0.068605 
0.098039 0.10497 0.086259 0.074632 
0.10196 0.11095 0.095171 0.080781 
0.10588 0.11676 0.10405 0.086915 
0.10980 0.12235 0.11276 0.092821 
0.11373 0.12775 0.12107 0.098421 
0.11765 0.13301 0.12880 0.10358 
0.12157 0.13828 0.13582 0.10838 
0.12549 0.14360 0.14214 0.11281 
0.12941 0.14917 0.14789 0.11696 
0.13333 0.15496 0.15326 0.12087 
0.13725 0.16083 0.15824 0.12454 
0.14118 0.16675 0.16303 0.12810 
0.14510 0.17258 0.16765 0.13156 
0.14902 0.17830 0.17217 0.13495 
0.15294 0.18379 0.17665 0.13829 
0.15686 0.18915 0.18103 0.14160 
0.16078 0.19445 0.18538 0.14495 
0.16471 0.19973 0.18965 0.14833 
0.16863 0.20500 0.19402 0.15172 
0.17255 0.21032 0.19835 0.15517 
0.17647 0.21575 0.20267 0.15865 
0.18039 0.22119 0.20693 0.16216 
0.18431 0.22655 0.21108 0.16574 
0.18824 0.23189 0.21521 0.16933 
0.19216 0.23714 0.21930 0.17293 
0.19608 0.24225 0.22335 0.17655 
0.20000 0.24732 0.22731 0.18010 
0.20392 0.25231 0.23120 0.18364 
0.20784 0.25728 0.23503 0.18717 
0.21176 0.26212 0.23890 0.19060 
0.21569 0.26693 0.24282 0.19397 
0.21961 0.27169 0.24681 0.19725 
0.22353 0.27642 0.25086 0.20049 
0.22745 0.28098 0.25495 0.20371 
0.23137 0.28537 0.25905 0.20684 
0.23529 0.28960 0.26323 0.20987 
0.23922 0.29377 0.26744 0.21286 
0.24314 0.29781 0.27167 0.21578 
0.24706 0.30172 0.27593 0.21865 
0.25098 0.30546 0.28022 0.22145 
0.25490 0.30910 0.28453 0.22425 
0.25882 0.31266 0.28887 0.22698 
0.26275 0.31620 0.29320 0.22974 
0.26667 0.31966 0.29755 0.23249 
0.27059 0.32308 0.30185 0.23522 
0.27451 0.32659 0.30610 0.23792 
0.27843 0.33022 0.31028 0.24060 
0.28235 0.33394 0.31444 0.24329 
0.28627 0.33776 0.31855 0.24601 
0.29020 0.34163 0.32270 0.24871 
0.29412 0.34557 0.32691 0.25144 
0.29804 0.34958 0.33124 0.25422 
0.30196 0.35358 0.33561 0.25705 
0.30588 0.35760 0.33996 0.25989 
0.30980 0.36159 0.34432 0.26278 
0.31373 0.36561 0.34874 0.26566 
0.31765 0.36965 0.35317 0.26864 
0.32157 0.37374 0.35760 0.27161 
0.32549 0.37783 0.36207 0.27468 
0.32941 0.38190 0.36661 0.27773 
0.33333 0.38601 0.37122 0.28083 
0.33725 0.39016 0.37589 0.28388 
0.34118 0.39438 0.38050 0.28701 
0.34510 0.39864 0.38500 0.29015 
0.34902 0.40299 0.38939 0.29332 
0.35294 0.40740 0.39370 0.29657 
0.35686 0.41186 0.39799 0.29984 
0.36078 0.41630 0.40230 0.30309 
0.36471 0.42072 0.40664 0.30639 
0.36863 0.42512 0.41099 0.30968 
0.37255 0.42930 0.41534 0.31301 
0.37647 0.43334 0.41959 0.31638 
0.38039 0.43748 0.42377 0.31975 
0.38431 0.44170 0.42786 0.32313 
0.38824 0.44596 0.43192 0.32654 
0.39216 0.45023 0.43590 0.32999 
0.39608 0.45451 0.43986 0.33346 
0.40000 0.45876 0.44381 0.33698 
0.40392 0.46311 0.44781 0.34049 
0.40784 0.46749 0.45183 0.34400 
0.41176 0.47185 0.45585 0.34752 
0.41569 0.47617 0.45988 0.35100 
0.41961 0.48051 0.46394 0.35450 
0.42353 0.48481 0.46799 0.35796 
0.42745 0.48908 0.47207 0.36144 
0.43137 0.49334 0.47616 0.36490 
0.43529 0.49760 0.48026 0.36835 
0.43922 0.50179 0.48437 0.37179 
0.44314 0.50602 0.48847 0.37520 
0.44706 0.51022 0.49259 0.37868 
0.45098 0.51440 0.49680 0.38216 
0.45490 0.51856 0.50108 0.38563 
0.45882 0.52276 0.50535 0.38906 
0.46275 0.52696 0.50962 0.39245 
0.46667 0.53126 0.51391 0.39576 
0.47059 0.53556 0.51820 0.39899 
0.47451 0.53985 0.52248 0.40226 
0.47843 0.54409 0.52679 0.40555 
0.48235 0.54829 0.53109 0.40885 
0.48627 0.55244 0.53538 0.41222 
0.49020 0.55654 0.53967 0.41566 
0.49412 0.56062 0.54392 0.41907 
0.49804 0.56474 0.54821 0.42246 
0.50196 0.56883 0.55251 0.42582 
0.50588 0.57295 0.55683 0.42921 
0.50980 0.57711 0.56107 0.43259 
0.51373 0.58135 0.56524 0.43601 
0.51765 0.58563 0.56941 0.43946 
0.52157 0.58993 0.57357 0.44288 
0.52549 0.59419 0.57777 0.44631 
0.52941 0.59852 0.58198 0.44977 
0.53333 0.60304 0.58614 0.45330 
0.53725 0.60763 0.59031 0.45689 
0.54118 0.61224 0.59446 0.46044 
0.54510 0.61686 0.59861 0.46403 
0.54902 0.62147 0.60278 0.46766 
0.55294 0.62611 0.60694 0.47129 
0.55686 0.63073 0.61115 0.47495 
0.56078 0.63536 0.61546 0.47861 
0.56471 0.64001 0.61987 0.48231 
0.56863 0.64471 0.62437 0.48598 
0.57255 0.64950 0.62885 0.48966 
0.57647 0.65426 0.63328 0.49332 
0.58039 0.65901 0.63769 0.49700 
0.58431 0.66372 0.64199 0.50068 
0.58824 0.66841 0.64617 0.50442 
0.59216 0.67297 0.65020 0.50814 
0.59608 0.67723 0.65409 0.51188 
0.60000 0.68115 0.65786 0.51562 
0.60392 0.68476 0.66148 0.51937 
0.60784 0.68841 0.66503 0.52313 
0.61176 0.69226 0.66862 0.52688 
0.61569 0.69633 0.67230 0.53066 
0.61961 0.70057 0.67602 0.53445 
0.62353 0.70483 0.67984 0.53826 
0.62745 0.70907 0.68371 0.54211 
0.63137 0.71327 0.68768 0.54594 
0.63529 0.71748 0.69169 0.54978 
0.63922 0.72169 0.69575 0.55367 
0.64314 0.72587 0.69981 0.55758 
0.64706 0.73001 0.70384 0.56150 
0.65098 0.73413 0.70780 0.56539 
0.65490 0.73822 0.71171 0.56924 
0.65882 0.74223 0.71560 0.57308 
0.66275 0.74621 0.71940 0.57694 
0.66667 0.75018 0.72317 0.58083 
0.67059 0.75410 0.72691 0.58476 
0.67451 0.75799 0.73066 0.58865 
0.67843 0.76182 0.73443 0.59252 
0.68235 0.76567 0.73819 0.59644 
0.68627 0.76951 0.74191 0.60040 
0.69020 0.77331 0.74559 0.60439 
0.69412 0.77710 0.74926 0.60841 
0.69804 0.78091 0.75294 0.61244 
0.70196 0.78471 0.75665 0.61642 
0.70588 0.78853 0.76036 0.62040 
0.70980 0.79229 0.76407 0.62438 
0.71373 0.79602 0.76776 0.62840 
0.71765 0.79973 0.77150 0.63249 
0.72157 0.80339 0.77525 0.63664 
0.72549 0.80693 0.77908 0.64082 
0.72941 0.81030 0.78286 0.64498 
0.73333 0.81367 0.78663 0.64906 
0.73725 0.81712 0.79033 0.65299 
0.74118 0.82066 0.79394 0.65684 
0.74510 0.82423 0.79750 0.66059 
0.74902 0.82777 0.80102 0.66427 
0.75294 0.83133 0.80456 0.66793 
0.75686 0.83487 0.80815 0.67166 
0.76078 0.83839 0.81175 0.67546 
0.76471 0.84192 0.81538 0.67935 
0.76863 0.84541 0.81903 0.68334 
0.77255 0.84889 0.82266 0.68748 
0.77647 0.85228 0.82629 0.69172 
0.78039 0.85565 0.82988 0.69603 
0.78431 0.85898 0.83345 0.70028 
0.78824 0.86221 0.83705 0.70448 
0.79216 0.86532 0.84067 0.70855 
0.79608 0.86844 0.84428 0.71261 
0.80000 0.87161 0.84790 0.71666 
0.80392 0.87478 0.85151 0.72078 
0.80784 0.87790 0.85510 0.72490 
0.81176 0.88103 0.85870 0.72900 
0.81569 0.88411 0.86235 0.73313 
0.81961 0.88719 0.86604 0.73725 
0.82353 0.89024 0.86976 0.74134 
0.82745 0.89323 0.87350 0.74540 
0.83137 0.89616 0.87723 0.74948 
0.83529 0.89914 0.88089 0.75358 
0.83922 0.90210 0.88446 0.75775 
0.84314 0.90504 0.88800 0.76199 
0.84706 0.90796 0.89151 0.76629 
0.85098 0.91087 0.89502 0.77063 
0.85490 0.91374 0.89856 0.77501 
0.85882 0.91656 0.90207 0.77951 
0.86275 0.91939 0.90552 0.78410 
0.86667 0.92218 0.90889 0.78872 
0.87059 0.92496 0.91223 0.79327 
0.87451 0.92764 0.91554 0.79782 
0.87843 0.93033 0.91882 0.80241 
0.88235 0.93300 0.92204 0.80714 
0.88627 0.93562 0.92522 0.81205 
0.89020 0.93816 0.92831 0.81717 
0.89412 0.94070 0.93136 0.82242 
0.89804 0.94319 0.93436 0.82770 
0.90196 0.94565 0.93730 0.83310 
0.90588 0.94812 0.94015 0.83867 
0.90980 0.95051 0.94296 0.84433 
0.91373 0.95293 0.94572 0.85016 
0.91765 0.95528 0.94846 0.85597 
0.92157 0.95760 0.95111 0.86191 
0.92549 0.95991 0.95375 0.86798 
0.92941 0.96217 0.95637 0.87420 
0.93333 0.96446 0.95894 0.88043 
0.93725 0.96669 0.96149 0.88672 
0.94118 0.96892 0.96402 0.89299 
0.94510 0.97115 0.96649 0.89943 
0.94902 0.97333 0.96898 0.90597 
0.95294 0.97551 0.97147 0.91257 
0.95686 0.97765 0.97389 0.91928 
0.96078 0.97980 0.97635 0.92609 
0.96471 0.98189 0.97877 0.93301 
0.96863 0.98399 0.98117 0.94005 
0.97255 0.98604 0.98360 0.94716 
0.97647 0.98810 0.98596 0.95439 
0.98039 0.99011 0.98833 0.96170 
0.98431 0.99214 0.99071 0.96910 
0.98824 0.99413 0.99303 0.97662 
0.99216 0.99609 0.99538 0.98428 
0.99608 0.99806 0.99768 0.99208 
1.0000 1.0000 1.0000 1.0000 
END_DATA
