CTI3   

DESCRIPTOR "Argyll Calibration Target chart information 3"
ORIGINATOR "Argyll dispread"
CREATED "Thu Mar  8 07:21:23 2012"
KEYWORD "DEVICE_CLASS"
DEVICE_CLASS "DISPLAY"
KEYWORD "COLOR_REP"
COLOR_REP "RGB_XYZ"
KEYWORD "TARGET_INSTRUMENT"
TARGET_INSTRUMENT "Hughski ColorHug"
KEYWORD "INSTRUMENT_TYPE_SPECTRAL"
INSTRUMENT_TYPE_SPECTRAL "NO"
KEYWORD "LUMINANCE_XYZ_CDM2"
LUMINANCE_XYZ_CDM2 "81.686356 92.292892 112.803101"
KEYWORD "NORMALIZED_TO_Y_100"
NORMALIZED_TO_Y_100 "YES"

NUMBER_OF_FIELDS 7
BEGIN_DATA_FORMAT
SAMPLE_ID RGB_R RGB_G RGB_B XYZ_X XYZ_Y XYZ_Z 
END_DATA_FORMAT

NUMBER_OF_SETS 836
BEGIN_DATA
1 100.00 100.00 100.00 88.508 100.00 122.22 
2 100.00 100.00 100.00 88.571 98.883 131.28 
3 100.00 100.00 100.00 89.682 98.513 133.61 
4 100.00 100.00 100.00 87.843 97.086 119.22 
5 0.0000 100.00 100.00 49.997 76.342 139.45 
6 0.0000 0.0000 0.0000 0.70955 0.87567 0.90958 
7 0.0000 0.0000 100.00 22.982 6.5957 123.29 
8 100.00 0.0000 0.0000 40.687 20.642 -1.9995 
9 100.00 100.00 0.0000 67.571 93.493 14.037 
10 0.0000 100.00 0.0000 28.162 74.678 15.135 
11 100.00 0.0000 100.00 62.527 27.490 114.15 
12 0.0000 49.772 100.00 26.132 16.889 121.00 
13 0.0000 52.030 0.0000 4.8542 11.941 2.7662 
14 0.0000 0.0000 52.760 4.1008 1.7716 19.759 
15 100.00 0.0000 45.125 43.009 21.334 9.4059 
16 100.00 49.621 100.00 65.001 36.157 121.98 
17 100.00 53.697 0.0000 45.436 33.051 -0.015987 
18 44.554 0.0000 0.0000 5.0849 3.0391 0.77670 
19 100.00 100.00 46.389 70.349 94.975 22.671 
20 0.0000 100.00 55.657 32.246 73.453 40.441 
21 49.477 100.00 100.00 56.528 82.987 134.44 
22 46.306 100.00 0.0000 33.366 76.511 15.486 
23 40.510 0.0000 100.00 25.556 9.1413 116.41 
24 0.0000 52.807 50.635 8.3731 13.660 19.741 
25 100.00 52.549 51.288 45.582 32.012 19.851 
26 49.732 47.591 0.0000 10.009 12.301 2.3523 
27 48.223 0.0000 52.651 9.8104 4.9332 19.188 
28 50.614 55.771 100.00 33.968 25.075 119.05 
29 49.932 100.00 55.492 38.553 77.796 39.276 
30 0.0000 25.869 0.0000 1.2084 1.7530 1.3383 
31 0.0000 0.0000 26.745 1.1638 1.3280 2.4137 
32 100.00 0.0000 72.532 49.697 23.225 48.981 
33 100.00 27.894 0.0000 40.809 21.658 -1.5368 
34 0.0000 100.00 28.029 28.376 74.613 17.012 
35 100.00 74.559 100.00 74.831 57.658 128.04 
36 0.0000 74.784 100.00 35.681 39.202 129.93 
37 100.00 100.00 74.254 76.631 90.803 63.702 
38 73.667 100.00 0.0000 46.400 82.682 15.300 
39 71.872 0.0000 100.00 39.983 15.547 121.38 
40 75.331 100.00 100.00 69.897 85.778 137.74 
41 72.712 0.0000 0.0000 18.265 9.8751 -0.11064 
42 0.0000 25.804 100.00 22.640 7.8173 117.52 
43 28.281 0.0000 0.0000 1.9066 1.5965 1.2168 
44 51.446 48.218 54.003 14.493 14.096 22.798 
45 100.00 100.00 29.937 68.433 94.085 14.521 
46 100.00 25.040 100.00 62.390 28.436 111.74 
47 0.0000 76.268 0.0000 14.187 36.896 7.2480 
48 24.793 100.00 100.00 50.871 81.346 133.57 
49 100.00 0.0000 27.673 41.112 21.042 -0.18436 
50 100.00 76.963 0.0000 54.511 57.823 5.1937 
51 0.0000 0.0000 76.526 11.449 3.9998 58.395 
52 20.393 0.0000 100.00 22.540 7.8028 116.47 
53 16.434 100.00 0.0000 27.779 72.369 14.956 
54 0.0000 100.00 83.902 42.222 78.447 92.181 
55 36.269 29.322 100.00 25.664 9.2058 121.78 
56 0.0000 31.510 72.981 10.829 5.1971 52.179 
57 73.108 72.977 0.0000 30.407 40.855 5.7425 
58 32.622 73.057 0.0000 14.192 33.483 6.5016 
59 71.440 0.0000 32.833 18.120 9.5647 3.6488 
60 67.360 30.655 100.00 37.938 15.492 120.94 
61 100.00 32.435 69.725 49.332 25.313 41.628 
62 71.564 100.00 33.694 45.525 80.431 20.132 
63 0.0000 29.065 27.751 1.7267 2.4722 2.9404 
64 30.289 100.00 27.578 29.460 74.528 15.372 
65 100.00 73.586 74.348 63.112 56.113 59.870 
66 0.0000 71.529 28.374 12.157 30.130 8.2444 
67 31.776 0.0000 27.675 2.6829 2.0312 2.6334 
68 0.0000 72.764 72.179 21.727 34.854 57.271 
69 100.00 71.739 30.730 52.537 50.228 6.6526 
70 68.944 29.578 0.0000 16.186 9.7832 0.57396 
71 27.661 73.523 100.00 36.058 40.464 128.27 
72 73.052 0.0000 71.273 27.241 12.581 46.185 
73 100.00 29.114 32.478 41.826 22.321 1.5786 
74 26.539 0.0000 74.456 11.566 4.2577 54.946 
75 74.574 100.00 69.826 54.129 84.885 56.826 
76 28.869 100.00 71.428 37.313 74.416 62.552 
77 29.597 24.401 0.0000 2.2359 2.2077 1.3070 
78 70.927 76.065 100.00 53.144 51.569 126.99 
79 27.482 52.084 27.416 6.2944 12.649 4.6389 
80 26.713 44.947 0.0000 4.3104 8.1754 2.3909 
81 71.088 69.567 55.036 31.136 36.697 27.782 
82 100.00 80.666 49.689 58.705 61.315 23.113 
83 0.0000 49.644 76.396 14.941 13.827 59.262 
84 74.997 48.292 100.00 45.015 25.501 121.97 
85 30.106 69.463 56.017 16.181 28.735 29.044 
86 43.286 26.755 23.045 5.2714 3.8551 1.8797 
87 74.178 48.460 28.303 22.989 19.238 3.0996 
88 0.0000 45.287 19.075 3.5735 7.8916 2.7789 
89 25.019 55.855 100.00 29.064 21.355 125.41 
90 25.534 24.047 47.724 4.1982 2.6545 14.595 
91 50.479 0.0000 83.513 20.996 7.7033 76.470 
92 44.803 100.00 71.728 41.591 79.205 63.920 
93 17.575 0.0000 48.903 3.7803 2.1272 15.571 
94 54.486 68.666 25.247 18.629 30.938 6.6271 
95 17.389 100.00 52.794 31.480 71.410 37.505 
96 0.0000 84.157 50.767 21.285 49.244 25.144 
97 72.992 28.210 48.246 21.470 11.645 13.938 
98 52.611 83.840 100.00 46.393 56.998 123.45 
99 75.352 45.506 0.0000 22.214 17.451 1.1054 
100 0.0000 14.740 49.422 3.6047 1.8764 16.042 
101 100.00 25.426 51.635 44.037 22.273 16.166 
102 100.00 50.477 80.970 57.187 34.584 69.234 
103 100.00 53.335 25.883 44.610 32.384 1.9806 
104 48.377 19.285 0.0000 6.3619 3.9325 0.95979 
105 49.554 83.843 0.0000 24.024 50.106 8.3106 
106 48.236 0.0000 17.016 6.4289 3.9583 0.92453 
107 0.0000 15.223 16.409 0.98444 1.1410 1.4885 
108 80.824 0.0000 48.615 25.982 13.152 14.144 
109 31.775 44.060 69.079 12.697 10.200 45.724 
110 51.019 100.00 27.603 35.142 77.815 16.640 
111 58.770 29.896 73.262 20.386 10.059 50.814 
112 0.0000 0.0000 13.289 0.94607 1.1676 1.2128 
113 81.710 100.00 49.485 55.275 87.463 26.973 
114 0.0000 13.147 0.0000 0.94607 1.1676 1.2128 
115 100.00 0.0000 57.896 42.573 21.176 25.404 
116 50.001 69.176 72.132 26.394 33.373 55.895 
117 0.0000 87.688 100.00 42.281 57.901 132.07 
118 71.869 54.831 69.907 31.218 24.959 47.605 
119 82.143 16.149 0.0000 25.312 13.327 -0.71241 
120 100.00 87.564 100.00 80.504 80.679 114.89 
121 100.00 14.495 0.0000 40.215 20.703 -1.6192 
122 61.965 100.00 100.00 61.509 81.922 135.44 
123 83.813 100.00 17.552 52.539 80.963 17.966 
124 50.222 18.338 100.00 29.426 10.282 122.46 
125 20.108 23.686 100.00 23.109 7.7084 119.34 
126 82.329 0.0000 17.488 25.312 13.327 -0.71241 
127 82.988 17.497 100.00 47.744 19.392 121.42 
128 85.854 0.0000 100.00 50.037 20.931 117.38 
129 100.00 18.671 83.334 54.463 24.691 73.339 
130 0.0000 100.00 42.183 29.734 72.476 25.995 
131 84.389 84.779 0.0000 44.191 60.997 7.0345 
132 86.979 100.00 0.0000 55.744 85.034 14.637 
133 100.00 40.961 0.0000 42.058 25.429 -0.56293 
134 13.519 35.951 100.00 24.428 10.041 123.30 
135 0.0000 18.691 83.992 14.843 5.1215 76.569 
136 75.591 26.816 22.157 20.149 11.404 0.60828 
137 0.0000 100.00 13.753 27.928 73.211 15.783 
138 84.392 100.00 83.127 67.829 89.578 86.394 
139 100.00 83.416 17.234 56.963 64.296 7.2302 
140 83.965 33.908 100.00 49.584 22.186 119.51 
141 100.00 100.00 87.538 82.388 99.077 88.170 
142 86.631 0.0000 0.0000 28.675 14.941 -1.0362 
143 73.839 78.145 31.992 33.796 48.753 9.9340 
144 0.0000 39.871 0.0000 2.6070 5.4815 2.0195 
145 45.403 65.868 0.0000 14.138 26.391 4.9108 
146 24.496 78.282 37.062 16.547 39.074 13.702 
147 74.349 80.128 74.975 44.457 53.732 59.570 
148 100.00 100.00 59.816 72.640 95.099 37.134 
149 21.512 19.178 24.465 1.4987 1.4571 2.2373 
150 21.152 65.244 78.145 20.842 27.595 65.277 
151 0.0000 39.445 51.456 5.6526 6.1500 18.930 
152 0.0000 37.119 86.142 17.214 8.3315 84.054 
153 21.895 22.364 77.185 12.248 4.5021 60.309 
154 22.527 45.447 46.235 6.1321 8.8754 14.487 
155 100.00 61.208 100.00 69.418 44.669 120.33 
156 100.00 36.525 84.478 56.210 27.939 76.368 
157 17.251 0.0000 16.491 1.1313 1.3393 1.3291 
158 50.352 22.875 47.038 9.4731 5.2058 13.693 
159 51.534 35.754 100.00 30.606 13.206 120.96 
160 100.00 57.667 68.630 54.328 38.401 43.959 
161 0.0000 0.0000 40.019 2.2962 1.6216 8.4274 
162 20.286 81.615 0.0000 16.871 42.791 9.2766 
163 13.966 66.654 0.0000 9.8213 24.977 5.4083 
164 100.00 17.864 17.617 40.908 21.028 -1.4741 
165 100.00 85.795 34.302 57.654 69.501 11.624 
166 0.0000 13.186 100.00 23.238 7.0191 122.69 
167 100.00 100.00 15.296 67.143 92.578 14.969 
168 87.292 67.174 0.0000 38.412 39.343 3.6429 
169 63.018 15.087 0.0000 12.633 7.1271 0.47035 
170 60.527 100.00 0.0000 38.581 76.268 14.859 
171 100.00 0.0000 86.208 55.701 24.984 79.593 
172 35.131 100.00 85.790 44.844 79.503 95.125 
173 60.211 57.971 0.0000 16.983 21.603 3.5542 
174 54.472 76.856 50.879 25.295 41.968 24.601 
175 35.811 86.175 100.00 43.562 58.424 128.38 
176 0.0000 84.051 17.442 18.069 45.975 10.606 
177 100.00 14.213 35.817 41.478 21.111 2.9283 
178 43.710 100.00 40.760 33.655 74.654 23.816 
179 0.0000 14.517 67.391 8.3137 3.2377 41.022 
180 44.831 0.0000 34.146 5.9616 3.6656 4.7715 
181 53.257 48.450 32.182 12.184 13.712 5.4991 
182 80.634 21.747 68.401 31.966 14.892 42.053 
183 33.047 87.184 0.0000 21.251 50.284 12.041 
184 76.764 52.568 51.162 28.548 23.361 18.607 
185 100.00 15.270 67.250 48.218 22.994 38.957 
186 0.0000 85.277 65.703 25.677 50.897 47.331 
187 33.745 0.0000 87.227 18.288 6.1690 86.068 
188 34.414 0.0000 14.509 2.8801 2.1723 1.1319 
189 0.0000 68.669 57.560 15.312 28.577 31.031 
190 0.0000 66.827 12.553 9.9393 24.656 6.1022 
191 67.404 100.00 18.898 41.949 80.153 13.219 
192 36.493 12.179 0.0000 3.2663 2.4214 1.1424 
193 16.869 100.00 83.869 41.420 76.011 87.307 
194 0.0000 30.989 14.139 1.5477 2.7520 1.4730 
195 85.031 31.706 0.0000 27.149 15.606 0.13071 
196 0.0000 87.999 83.008 33.030 57.842 78.339 
197 53.960 50.013 80.356 24.533 18.116 70.458 
198 83.973 0.0000 82.844 39.572 16.995 74.699 
199 0.0000 64.669 82.369 22.048 26.386 75.673 
200 0.0000 56.916 36.220 7.3242 15.922 8.6874 
201 15.312 0.0000 65.704 7.8912 3.0635 38.531 
202 57.952 0.0000 0.0000 10.246 5.8475 0.57596 
203 67.104 0.0000 57.104 19.269 9.3310 24.649 
204 86.646 0.0000 34.750 29.379 15.076 3.2957 
205 38.496 15.162 64.774 10.160 4.4866 36.203 
206 100.00 0.0000 13.908 39.663 20.590 -1.1149 
207 0.0000 62.707 100.00 29.818 27.098 120.50 
208 14.974 0.0000 85.629 15.515 5.2674 79.816 
209 100.00 84.721 85.106 71.414 73.320 74.588 
210 17.977 11.338 0.0000 1.1313 1.3393 1.3291 
211 36.369 80.565 73.488 28.575 46.441 62.357 
212 36.429 100.00 14.052 30.441 72.980 16.514 
213 17.842 34.779 0.0000 2.0595 3.7761 1.8128 
214 68.014 100.00 85.106 56.787 80.847 95.344 
215 67.422 0.0000 85.546 30.004 12.052 81.281 
216 82.617 66.865 86.564 50.290 42.152 87.346 
217 17.323 100.00 16.561 28.270 74.436 15.242 
218 36.759 62.157 100.00 32.841 26.619 126.93 
219 100.00 63.264 42.070 49.895 41.619 11.078 
220 17.144 85.171 100.00 40.903 56.638 127.78 
221 82.628 88.517 100.00 66.379 73.804 122.35 
222 42.508 59.162 43.030 12.546 20.012 13.438 
223 15.879 0.0000 32.514 1.6305 1.4603 4.3712 
224 13.914 0.0000 0.0000 1.0131 1.1934 1.1775 
225 0.0000 14.875 31.793 1.5252 1.4611 4.1308 
226 40.699 46.047 100.00 29.044 16.119 122.73 
227 33.094 13.607 100.00 24.824 7.7480 122.88 
228 86.363 100.00 34.880 55.877 85.214 18.300 
229 100.00 86.140 66.213 66.190 73.156 43.633 
230 14.817 100.00 34.636 28.833 73.424 20.009 
231 100.00 34.683 17.474 41.638 23.147 -1.0179 
232 14.768 100.00 68.024 35.725 76.841 55.647 
233 31.864 0.0000 58.806 7.1811 3.3940 27.132 
234 0.0000 86.128 34.446 19.960 49.840 15.138 
235 83.837 63.507 100.00 55.239 40.650 119.35 
236 100.00 65.852 15.459 48.362 43.505 2.5644 
237 100.00 88.682 0.0000 61.007 74.413 9.1220 
238 37.474 100.00 100.00 51.845 81.793 129.75 
239 37.249 37.275 40.035 5.9921 6.0693 9.0826 
240 38.416 79.284 18.329 18.452 42.005 8.1634 
241 100.00 36.249 45.449 43.944 24.400 10.067 
242 0.0000 42.567 34.875 3.8356 6.7870 6.6023 
243 13.662 68.478 100.00 32.807 32.732 126.94 
244 65.114 0.0000 15.658 13.660 7.5819 0.43908 
245 16.651 51.372 62.148 10.865 13.395 34.640 
246 30.301 32.686 17.311 2.8917 3.6712 1.6208 
247 31.443 100.00 0.0000 29.591 74.821 15.434 
248 100.00 65.622 86.329 64.534 47.194 85.815 
249 55.905 83.078 65.229 32.878 50.427 46.232 
250 79.020 34.827 82.873 37.215 18.569 71.240 
251 33.586 100.00 58.033 34.232 75.223 41.534 
252 68.089 100.00 54.471 46.834 79.012 38.778 
253 56.192 0.0000 100.00 30.991 11.748 117.33 
254 39.620 32.827 80.313 16.724 8.0976 66.932 
255 66.953 86.509 0.0000 33.114 57.895 9.2015 
256 18.046 59.907 42.463 9.2372 18.743 13.273 
257 57.584 16.564 27.856 10.406 5.9032 2.3989 
258 65.771 64.234 86.396 37.349 34.126 84.226 
259 19.175 44.280 79.343 15.583 10.830 68.145 
260 100.00 12.319 100.00 61.760 26.349 119.66 
261 0.0000 37.864 100.00 24.365 10.708 122.12 
262 66.645 14.906 100.00 36.874 13.889 121.65 
263 64.728 43.933 13.565 15.907 13.575 1.7281 
264 0.0000 100.00 70.216 35.847 75.700 60.350 
265 0.0000 56.322 64.829 12.900 17.232 39.689 
266 86.394 100.00 64.034 62.211 84.542 52.122 
267 15.286 32.389 60.597 7.0151 4.5939 30.296 
268 37.991 35.871 0.0000 4.6606 5.2799 1.5126 
269 87.895 100.00 100.00 79.183 95.044 130.37 
270 15.890 64.944 21.014 9.3791 23.271 5.4422 
271 83.042 42.158 62.894 33.336 19.951 34.085 
272 56.905 0.0000 68.263 17.253 7.6725 42.268 
273 18.779 78.664 66.892 22.643 42.681 46.208 
274 0.0000 88.435 0.0000 20.758 54.608 10.777 
275 45.878 54.715 14.567 10.518 16.497 3.3052 
276 86.048 0.0000 63.785 34.075 16.130 34.169 
277 78.965 62.701 14.392 30.605 31.965 2.6685 
278 37.576 17.857 33.180 4.1901 2.7649 4.4708 
279 65.461 64.540 35.130 22.829 29.631 8.5560 
280 56.818 86.289 37.172 29.372 54.214 16.004 
281 81.204 64.643 69.726 40.168 35.931 47.784 
282 0.0000 0.0000 64.151 7.3093 3.0111 35.746 
283 52.632 84.625 83.829 38.898 55.328 82.364 
284 61.149 34.159 34.790 13.359 9.1487 5.3355 
285 35.850 58.040 81.134 21.421 21.449 71.378 
286 81.451 37.876 36.780 26.192 16.353 5.7000 
287 40.532 33.510 54.906 8.7863 5.9444 22.721 
288 62.249 80.296 17.904 27.462 47.159 8.1564 
289 82.394 81.014 42.318 42.747 55.927 15.847 
290 62.299 37.749 61.306 18.917 11.889 29.803 
291 65.438 87.967 100.00 55.409 61.815 134.25 
292 43.885 56.516 63.571 16.742 19.238 37.634 
293 69.688 17.905 84.499 30.503 12.623 76.448 
294 80.907 17.979 38.671 25.627 13.164 5.8134 
295 17.922 39.705 31.967 3.2402 5.6540 4.9910 
296 38.120 85.472 46.753 23.986 51.985 22.737 
297 67.314 17.462 58.595 19.720 9.5576 26.829 
298 0.0000 63.966 0.0000 8.6979 21.981 4.7638 
299 62.015 60.503 59.767 23.993 26.084 30.926 
300 18.247 82.294 83.315 31.071 49.638 82.323 
301 60.159 100.00 41.625 40.488 78.815 22.324 
302 86.353 62.199 37.131 37.210 34.661 8.3494 
303 100.00 37.431 100.00 63.725 31.141 114.93 
304 68.408 61.371 100.00 44.729 32.656 126.08 
305 19.140 83.963 16.778 17.956 45.347 10.188 
306 35.279 18.972 15.588 2.9471 2.1980 1.0967 
307 87.502 47.151 12.245 32.484 22.947 0.51702 
308 100.00 45.063 34.937 43.887 27.675 3.2935 
309 56.061 25.739 17.210 9.4546 5.6846 0.91042 
310 18.240 42.987 12.699 3.1061 6.8257 1.9059 
311 13.448 29.863 43.457 3.0451 2.6481 11.142 
312 38.482 74.148 85.897 30.550 38.277 88.784 
313 14.543 83.371 49.222 20.283 46.619 23.975 
314 18.091 13.615 62.432 6.7205 2.7966 32.242 
315 13.815 21.711 13.823 0.95896 1.3143 1.1239 
316 48.683 15.942 83.897 19.798 7.7388 73.550 
317 82.366 80.818 61.248 46.148 56.277 35.825 
318 100.00 68.896 58.265 53.550 47.142 30.977 
319 59.833 100.00 69.215 45.121 81.181 53.002 
320 32.952 0.0000 43.821 4.2406 2.2578 11.004 
321 82.338 13.654 57.479 29.717 14.371 24.000 
322 63.221 60.275 19.031 19.251 24.089 3.8747 
323 100.00 43.344 61.662 47.853 27.834 30.555 
324 53.859 32.356 0.0000 8.9645 6.5474 1.1039 
325 82.507 84.815 17.579 43.556 59.553 9.4231 
326 38.797 66.277 32.675 13.007 25.825 8.3017 
327 66.086 86.828 48.508 35.977 59.374 22.707 
328 0.0000 0.0000 88.968 17.335 5.3231 90.926 
329 30.125 57.327 12.958 7.6893 16.441 3.9245 
330 61.264 0.0000 43.274 13.314 7.0337 10.109 
331 85.243 49.911 88.324 46.583 27.769 87.821 
332 63.651 44.363 42.580 16.776 13.879 10.807 
333 13.066 49.050 0.0000 4.3991 10.088 2.8889 
334 61.358 41.979 89.983 29.630 17.005 86.959 
335 0.0000 42.412 64.591 9.5430 8.3901 37.666 
336 62.252 44.000 0.0000 14.481 12.724 1.8377 
337 12.308 100.00 100.00 50.578 80.660 135.96 
338 73.231 86.634 87.339 52.439 64.729 93.754 
339 66.842 14.120 41.667 16.338 8.5826 8.5658 
340 87.602 49.315 0.0000 33.140 24.411 0.83078 
341 14.359 14.910 38.364 2.1967 1.6071 7.3781 
342 39.463 43.174 27.875 6.4005 8.3657 3.8219 
343 15.038 58.854 84.779 21.692 21.634 83.699 
344 16.321 65.564 57.352 13.903 24.927 29.763 
345 11.684 27.637 87.875 17.019 6.0819 87.592 
346 32.976 11.425 79.662 14.222 5.3681 64.104 
347 87.391 27.974 91.973 47.344 21.102 95.256 
348 87.700 12.565 22.297 29.697 15.411 -0.25856 
349 75.652 15.745 12.400 19.583 10.501 0.21485 
350 45.784 91.194 15.342 27.446 61.678 11.453 
351 85.616 81.955 84.517 58.315 61.346 86.312 
352 68.914 66.736 69.796 33.480 34.673 50.272 
353 50.580 13.330 13.168 7.1884 4.3099 1.0344 
354 100.00 65.344 0.0000 49.178 43.494 2.5945 
355 85.236 68.310 56.605 41.067 41.195 27.059 
356 0.0000 70.154 43.887 13.047 29.213 15.848 
357 8.8704 10.826 20.291 1.0357 1.2611 1.6754 
358 33.792 45.362 86.676 20.461 12.907 85.588 
359 86.950 24.708 17.128 28.976 15.500 -0.63495 
360 49.870 40.050 11.141 8.5301 8.4004 1.7952 
361 37.970 53.234 0.0000 8.0466 14.175 3.2239 
362 86.780 76.613 100.00 63.832 56.353 121.25 
363 44.081 86.600 58.964 28.595 54.538 36.179 
364 37.430 13.704 51.309 6.5258 3.3141 17.858 
365 67.541 87.695 65.666 41.115 61.361 48.826 
366 26.812 54.238 53.736 10.051 14.838 23.446 
367 18.404 51.547 34.272 5.8004 11.885 7.1346 
368 53.134 62.277 87.555 31.148 29.026 88.245 
369 64.284 79.239 84.683 41.792 49.678 84.484 
370 13.229 22.228 0.0000 1.0772 1.4603 1.2755 
371 44.638 38.295 72.054 15.534 9.3723 50.509 
372 88.581 41.336 76.015 41.686 23.240 57.116 
373 47.936 73.793 61.516 23.975 37.335 38.018 
374 91.563 59.878 27.023 39.794 34.375 3.1069 
375 42.823 79.534 37.873 20.484 43.154 12.865 
376 46.953 15.025 23.601 6.1036 3.7502 1.6876 
377 30.550 29.820 67.782 10.179 5.1019 42.096 
378 89.535 84.787 72.979 56.850 66.025 59.843 
379 87.661 33.797 52.807 34.102 18.434 18.684 
380 47.789 70.864 14.405 16.844 32.177 5.9084 
381 60.528 18.196 75.086 21.223 9.1344 54.631 
382 93.131 12.168 74.845 44.180 20.575 51.918 
383 61.377 45.634 100.00 36.540 19.910 120.71 
384 26.537 60.250 0.0000 8.2029 19.043 4.1664 
385 90.859 33.324 23.960 33.136 18.792 4.5135e-03 
386 28.673 29.593 35.912 3.3048 3.1681 6.1381 
387 52.668 13.136 58.645 12.718 6.0638 26.898 
388 11.999 13.366 79.214 12.696 4.2135 65.236 
389 26.536 41.073 100.00 25.838 12.338 123.99 
390 56.977 69.943 100.00 42.723 40.255 126.92 
391 13.126 11.735 100.00 22.995 7.0320 121.13 
392 51.643 100.00 85.500 49.286 77.539 97.633 
393 53.388 100.00 13.698 35.753 78.080 13.309 
394 29.105 84.570 60.605 25.052 51.047 39.275 
395 34.048 49.108 46.295 8.3586 11.629 14.665 
396 0.0000 52.827 88.818 21.240 17.561 89.457 
397 70.149 14.577 29.504 17.022 9.1478 2.3198 
398 36.403 68.651 73.121 22.245 31.114 56.287 
399 29.143 100.00 42.740 30.803 72.663 26.106 
400 51.319 35.519 45.793 10.570 7.7312 12.986 
401 27.057 32.120 86.530 17.711 7.1640 85.123 
402 59.262 28.988 86.844 25.211 11.518 78.150 
403 14.923 31.785 75.040 11.769 5.6237 56.814 
404 10.143 74.057 89.642 29.198 39.322 93.214 
405 30.561 45.554 13.575 4.8279 8.7173 2.4641 
406 8.0083 62.222 75.861 18.727 23.295 62.424 
407 74.656 36.443 16.206 20.937 13.627 0.44254 
408 86.644 53.717 59.630 38.367 28.488 28.977 
409 55.452 49.877 67.673 20.225 16.733 43.737 
410 89.467 56.706 77.742 47.535 33.201 65.078 
411 69.500 49.601 86.098 34.488 22.120 81.708 
412 10.943 90.213 0.0000 21.488 55.792 12.317 
413 55.108 57.247 45.768 16.640 20.525 15.162 
414 72.075 86.353 25.502 36.512 57.389 11.998 
415 19.746 13.008 12.523 1.1854 1.2184 1.3827 
416 52.864 29.073 56.850 12.715 7.0612 24.417 
417 87.430 74.310 12.569 41.709 48.144 4.8917 
418 8.0460 52.901 11.270 5.3401 12.672 3.2837 
419 65.067 44.887 74.222 25.988 16.699 55.877 
420 11.017 92.681 56.995 27.922 62.668 37.117 
421 86.006 71.930 33.334 40.201 44.786 7.8368 
422 91.861 6.7508 91.614 50.599 21.558 96.452 
423 86.370 85.258 31.985 47.295 62.091 11.714 
424 65.599 86.229 77.230 43.995 60.010 70.492 
425 88.040 11.013 8.1453 29.888 15.568 -0.95111 
426 10.044 77.857 37.213 15.841 38.601 13.646 
427 10.901 91.439 77.961 33.668 58.111 76.902 
428 28.748 65.221 85.677 24.890 28.135 84.405 
429 34.798 71.940 41.020 15.547 32.521 14.534 
430 36.734 86.865 88.491 38.267 57.830 96.610 
431 43.370 72.796 100.00 37.854 40.241 122.69 
432 9.3959 77.722 8.2113 14.487 36.988 8.1915 
433 88.206 88.711 50.734 52.878 68.617 25.008 
434 58.689 71.784 0.0000 21.536 34.805 5.9546 
435 100.00 11.567 51.346 43.966 21.844 15.348 
436 29.918 35.396 48.915 5.7488 5.1655 15.935 
437 100.00 49.412 12.894 44.150 29.950 -0.27893 
438 40.039 31.011 9.6841 4.5763 4.2373 1.3256 
439 25.133 8.0553 92.623 19.426 6.4641 98.606 
440 28.020 7.6428 38.183 2.9179 1.9852 7.2122 
441 0.0000 27.183 58.227 5.9529 3.3287 26.727 
442 32.794 21.014 88.755 18.934 6.1988 91.022 
443 9.1895 89.965 25.235 21.776 57.138 11.723 
444 57.277 0.0000 28.932 10.243 5.7992 2.7804 
445 92.330 27.369 77.038 44.770 21.433 56.409 
446 42.175 88.107 27.807 23.935 53.249 13.590 
447 12.107 8.1401 53.490 4.4172 2.2361 19.939 
448 29.680 40.492 32.609 4.3703 6.3491 5.3335 
449 59.890 70.479 60.491 26.571 36.085 32.242 
450 48.406 14.256 34.591 7.0945 4.1196 4.9807 
451 12.538 52.343 100.00 26.407 18.377 118.42 
452 49.277 46.590 42.251 11.126 11.933 11.201 
453 75.495 63.243 29.105 27.447 30.542 5.8109 
454 74.223 59.099 0.0000 25.422 26.803 2.8782 
455 41.558 0.0000 70.006 12.627 5.1995 45.920 
456 78.579 91.022 40.684 45.655 69.936 17.191 
457 22.840 54.250 71.043 14.639 16.004 50.478 
458 8.7645 41.214 45.166 4.7954 6.5886 12.953 
459 87.537 44.187 53.581 35.718 22.790 20.024 
460 14.777 53.804 49.955 8.4178 14.085 18.666 
461 10.947 66.170 31.856 10.167 24.738 7.8898 
462 85.673 49.966 35.321 32.479 24.203 5.5036 
463 10.732 21.236 25.746 1.2436 1.5006 2.2896 
464 10.809 89.492 37.535 22.531 56.459 17.326 
465 70.696 30.808 60.834 22.706 11.906 29.730 
466 29.083 55.393 38.265 8.0989 15.245 9.6596 
467 50.623 88.949 47.021 29.483 58.497 23.826 
468 90.529 59.127 13.743 38.353 33.200 1.7765 
469 47.950 39.136 88.378 23.648 12.404 87.903 
470 75.337 49.753 13.802 22.941 19.810 1.6949 
471 31.159 24.917 25.741 2.6033 2.3255 2.2152 
472 8.8227 8.7107 8.3200 0.94607 1.1676 1.2128 
473 86.558 28.147 32.417 29.619 16.061 2.3811 
474 44.691 53.632 87.836 25.626 19.645 89.911 
475 71.727 24.922 35.806 18.281 10.087 4.9294 
476 64.407 76.064 41.148 27.741 42.917 14.878 
477 29.869 72.605 17.293 13.438 32.183 6.6674 
478 43.584 56.937 32.039 10.914 17.730 6.5513 
479 44.538 25.483 91.536 23.189 8.4743 98.204 
480 75.260 60.355 60.648 31.570 29.468 32.922 
481 13.065 89.957 91.663 38.472 60.614 104.18 
482 24.778 91.788 88.299 39.091 62.909 99.405 
483 50.952 67.856 42.932 18.315 29.316 14.733 
484 37.533 25.407 46.659 5.8733 3.7665 13.171 
485 7.1271 39.614 77.067 13.276 8.3540 60.216 
486 72.283 75.068 14.168 30.158 43.347 6.0080 
487 58.115 35.167 21.427 11.209 8.4988 1.4687 
488 52.584 83.976 23.343 24.991 50.230 9.5769 
489 43.491 45.854 64.381 13.965 12.090 36.902 
490 50.762 37.672 34.717 9.2555 7.9585 5.6383 
491 27.798 12.441 69.405 9.7194 3.9086 44.014 
492 10.610 71.216 48.560 14.362 30.853 21.027 
493 76.326 95.012 10.539 44.875 74.185 11.161 
494 90.582 92.887 10.118 54.180 75.453 9.7777 
495 24.988 93.839 8.5597 24.564 61.454 14.090 
496 32.135 13.441 24.043 2.5549 1.9642 1.8950 
497 72.301 37.281 27.571 19.348 12.850 2.4626 
498 12.771 20.309 70.207 9.2640 3.5852 46.243 
499 43.590 9.4035 92.769 22.880 8.1719 98.745 
500 53.846 9.8318 47.222 10.650 5.6178 13.369 
501 77.882 91.267 78.463 54.592 70.818 72.713 
502 83.268 74.819 75.343 48.566 49.224 59.027 
503 90.621 25.054 63.358 37.681 18.488 32.797 
504 76.768 42.206 52.104 25.687 17.167 19.253 
505 14.585 20.051 49.213 3.7133 2.1014 15.607 
506 43.903 27.395 37.728 6.3972 4.4534 6.6310 
507 58.891 91.808 56.297 36.287 65.216 34.734 
508 24.027 44.532 57.258 8.2944 9.2222 26.141 
509 8.3768 44.010 91.924 20.718 12.302 97.011 
510 67.249 58.277 47.889 23.382 24.722 16.941 
511 37.006 92.655 67.799 32.883 62.213 53.281 
512 78.160 13.519 78.144 33.226 14.642 62.486 
513 88.113 9.8468 43.815 31.820 16.074 9.0481 
514 59.350 93.159 25.814 33.683 67.299 13.105 
515 23.775 65.127 33.833 10.316 23.761 8.6816 
516 87.693 56.006 46.845 36.563 29.561 14.489 
517 21.152 87.748 28.603 20.888 53.500 12.466 
518 61.636 14.054 14.512 11.860 6.6288 0.44935 
519 77.733 69.072 41.223 32.616 37.393 13.059 
520 90.261 92.011 90.954 70.362 79.836 98.335 
521 13.772 71.403 75.890 22.040 33.403 61.824 
522 53.721 50.386 9.8361 11.960 14.323 2.4936 
523 75.444 5.4570 58.690 24.577 12.048 26.360 
524 7.0128 77.711 58.477 19.424 38.897 34.417 
525 47.939 10.165 73.026 15.419 6.2324 51.274 
526 22.783 88.833 72.925 30.470 57.260 60.960 
527 24.091 55.486 88.854 22.925 19.367 93.340 
528 12.477 32.865 20.118 1.7686 3.1383 1.9983 
529 47.368 57.209 74.335 21.628 21.188 57.867 
530 63.185 57.113 76.614 29.015 25.060 61.543 
531 46.302 90.964 95.172 46.099 65.487 114.28 
532 50.590 62.862 58.311 19.214 25.407 29.777 
533 47.277 79.232 74.869 30.843 45.240 64.811 
534 74.136 6.1675 91.716 36.477 14.891 95.895 
535 59.516 91.269 7.3899 31.768 62.610 10.689 
536 61.217 76.791 72.893 34.629 45.192 59.609 
537 0.0000 57.877 20.595 6.7901 16.520 4.1518 
538 75.107 38.980 93.793 40.266 19.675 103.67 
539 42.602 76.950 5.0801 17.993 37.930 7.3973 
540 26.741 72.179 68.119 20.388 33.725 47.452 
541 0.0000 28.267 41.975 2.8944 2.5134 9.9054 
542 18.636 40.482 68.125 10.416 7.8572 43.421 
543 67.589 69.681 24.214 25.698 35.392 5.4387 
544 8.7341 75.796 20.861 13.858 35.818 7.7000 
545 63.004 53.490 36.309 17.993 18.884 7.5409 
546 69.099 25.296 74.656 25.771 11.790 54.161 
547 27.840 10.177 57.202 6.2482 2.8400 25.288 
548 5.6775 42.254 9.6297 2.9464 6.4805 2.1541 
549 77.251 87.313 53.696 42.778 63.564 27.464 
550 8.4601 44.703 57.001 7.7358 8.9480 25.925 
551 69.011 51.799 59.003 24.755 20.800 29.400 
552 9.3190 91.106 11.835 22.117 56.495 13.351 
553 29.530 37.661 78.042 14.182 8.4370 60.708 
554 94.852 79.948 91.003 67.951 64.192 98.601 
555 59.749 91.575 91.213 49.844 69.683 104.73 
556 92.570 91.748 23.511 53.580 74.980 9.9618 
557 6.7037 9.7437 87.706 16.193 5.5755 83.784 
558 61.925 29.660 44.425 14.301 8.4004 10.922 
559 41.451 47.191 76.725 18.035 13.471 61.248 
560 73.435 70.913 80.307 41.747 42.651 70.342 
561 94.472 24.256 40.185 36.935 19.037 5.7805 
562 92.504 75.881 63.903 52.826 53.301 41.232 
563 88.418 36.730 88.226 45.761 23.495 80.209 
564 27.302 37.046 6.3946 2.9760 4.7138 1.8077 
565 26.864 60.485 63.775 14.515 20.767 38.513 
566 72.662 28.072 89.941 35.502 15.361 91.295 
567 46.611 21.957 72.514 14.854 6.2631 49.796 
568 26.652 23.123 11.056 1.8368 1.8118 1.3854 
569 57.166 6.9740 91.727 26.687 10.768 91.463 
570 18.192 54.071 20.613 5.7720 13.523 3.7477 
571 93.026 46.855 67.692 44.445 27.341 41.394 
572 77.854 8.0627 39.878 22.711 11.840 6.9213 
573 22.599 92.899 60.455 29.086 62.773 42.687 
574 74.961 74.054 65.253 38.887 44.294 41.974 
575 41.713 5.7468 25.261 4.5943 2.9681 2.0547 
576 61.788 67.651 48.104 24.228 32.620 19.184 
577 29.358 79.710 92.006 34.542 47.953 102.10 
578 48.774 89.066 72.593 36.056 60.935 62.032 
579 21.601 10.449 29.369 1.6651 1.4974 3.2514 
580 29.207 23.023 58.125 6.6414 3.2513 26.019 
581 75.635 45.915 42.096 24.060 18.089 9.9665 
582 76.930 25.618 7.4084 21.304 11.748 -0.21357 
583 22.807 89.655 40.559 23.137 55.694 19.489 
584 60.651 55.043 91.200 33.880 24.400 98.523 
585 89.985 68.597 21.396 41.388 42.060 3.8864 
586 66.387 53.290 24.425 18.942 19.504 3.3582 
587 41.826 76.201 51.444 20.989 39.590 24.565 
588 44.475 21.396 56.042 9.2603 4.7091 23.292 
589 34.703 49.067 59.091 10.969 12.444 28.632 
590 99.112 63.852 75.720 58.036 43.915 60.312 
591 91.720 58.345 89.450 55.105 36.603 92.087 
592 74.576 16.624 49.571 22.204 11.236 14.768 
593 69.542 64.502 8.6356 24.317 30.217 3.9577 
594 28.947 77.066 80.294 27.990 41.865 76.062 
595 54.296 60.752 34.789 15.922 22.819 8.3408 
596 20.724 19.469 88.534 17.383 5.5070 89.718 
597 95.884 91.598 40.054 60.000 76.748 18.140 
598 91.632 69.189 45.938 44.794 44.197 15.758 
599 40.573 63.702 19.761 11.966 23.517 4.7863 
600 8.8459 32.956 6.0575 1.6789 3.0447 1.5357 
601 74.038 35.613 71.709 29.195 15.425 48.842 
602 40.657 65.311 51.262 15.744 25.596 22.562 
603 53.787 74.535 87.389 36.443 40.806 93.146 
604 7.0791 61.376 45.152 9.8396 20.038 15.604 
605 22.247 70.775 44.763 13.769 29.768 17.211 
606 26.485 19.107 37.490 2.6559 1.8667 6.5444 
607 40.257 9.8927 40.823 5.5355 3.1052 8.7609 
608 90.736 89.741 63.982 56.783 73.049 43.016 
609 11.119 49.441 71.361 13.101 12.707 50.134 
610 73.563 68.426 93.291 46.552 42.111 100.74 
611 97.991 56.483 35.675 45.035 34.314 5.9023 
612 70.850 96.981 44.129 44.470 72.728 26.270 
613 54.060 38.996 79.081 21.803 11.908 65.904 
614 0.0000 76.734 88.366 30.471 40.585 97.263 
615 92.815 78.483 25.094 47.931 54.503 7.7530 
616 53.538 61.700 10.564 15.295 23.097 4.0181 
617 54.473 2.4873 9.4608 8.5638 5.0404 0.73785 
618 22.842 1.5753 60.192 6.5405 2.8989 29.245 
619 90.202 22.326 4.4666 31.420 16.418 -0.82030 
620 19.781 55.213 8.0885 6.1271 14.428 3.6602 
621 78.737 45.208 79.159 36.449 21.903 62.472 
622 11.537 45.010 22.724 3.6119 7.8650 3.0546 
623 89.830 20.200 46.551 33.618 16.979 11.242 
624 88.057 48.786 100.00 55.454 30.620 120.74 
625 40.551 38.746 17.885 5.5585 6.5531 1.8629 
626 64.517 27.927 26.326 13.939 8.2504 1.8713 
627 23.870 32.080 96.648 22.492 8.6647 112.99 
628 71.475 36.222 39.391 19.452 12.511 6.9786 
629 42.621 91.486 4.2379 26.122 57.848 13.528 
630 91.486 4.2562 18.148 33.012 17.131 -1.4448 
631 10.925 97.313 45.807 28.698 70.748 24.862 
632 29.951 90.271 20.391 22.864 57.456 10.936 
633 44.187 5.4037 59.945 10.213 4.8156 28.381 
634 97.494 32.807 58.304 43.866 22.909 24.281 
635 77.920 63.069 49.866 31.838 32.000 19.136 
636 2.8694 92.261 49.168 25.926 61.428 27.562 
637 7.5969 7.7762 43.061 2.6960 1.7280 10.420 
638 60.009 23.697 5.0796 11.002 6.4402 0.81911 
639 52.942 40.685 59.452 14.772 10.789 28.435 
640 31.592 84.070 10.709 19.349 47.094 10.113 
641 92.018 37.969 38.210 34.564 20.593 6.1437 
642 96.263 60.857 53.704 47.471 37.807 20.819 
643 89.882 2.8714 51.981 34.929 17.282 16.652 
644 17.475 26.905 33.484 1.9825 2.1392 4.9593 
645 77.036 37.333 4.5443 22.296 14.452 0.36817 
646 82.765 74.228 3.3521 37.106 45.143 5.8504 
647 1.3111 28.012 84.907 15.298 6.0407 77.531 
648 29.125 61.952 47.271 11.462 21.159 17.727 
649 40.043 9.6579 9.7342 3.9746 2.6528 1.0654 
650 49.720 96.187 63.961 37.994 70.166 50.661 
651 20.834 76.926 56.803 19.069 38.749 31.891 
652 75.780 96.231 89.037 60.813 82.090 94.490 
653 39.437 23.958 3.5808 3.9847 3.0407 1.1099 
654 25.307 41.351 22.542 3.4663 6.3144 2.6363 
655 6.6334 66.959 65.665 16.712 26.994 42.673 
656 25.647 6.6476 17.480 1.5717 1.4675 1.3932 
657 8.7436 20.389 94.432 20.202 6.2715 106.37 
658 60.184 7.0587 22.951 11.296 6.3700 1.0426 
659 7.8422 8.1166 31.005 1.4355 1.3675 3.6682 
660 21.935 11.085 46.954 3.5814 2.0982 13.473 
661 57.095 27.542 96.369 30.018 11.622 109.54 
662 78.767 4.7580 8.7145 22.522 11.893 -0.39514 
663 46.546 23.753 13.791 5.9058 3.8986 1.1179 
664 2.6231 93.569 91.288 40.934 68.231 103.65 
665 76.850 78.338 90.328 52.476 54.866 97.275 
666 50.318 94.019 35.975 31.189 66.149 16.704 
667 81.191 24.751 79.395 35.867 16.007 66.061 
668 90.374 47.501 23.820 34.046 24.027 1.8657 
669 34.217 23.005 76.709 13.652 5.2851 59.702 
670 63.121 4.4246 73.772 22.172 9.4650 52.519 
671 91.614 10.061 63.312 36.944 17.737 33.727 
672 65.442 39.764 51.612 18.740 12.667 18.256 
673 32.019 91.127 79.150 35.266 60.806 77.033 
674 76.504 59.192 79.980 39.554 30.387 70.218 
675 66.236 79.252 58.026 33.467 47.259 32.928 
676 53.094 26.471 31.387 8.7668 5.4726 3.6898 
677 87.618 96.281 74.109 62.457 83.211 67.777 
678 70.441 15.926 69.011 24.744 11.189 43.126 
679 60.489 18.359 90.956 28.497 10.885 94.653 
680 40.894 96.328 51.369 32.256 69.542 32.095 
681 47.348 64.774 97.032 34.224 30.875 112.62 
682 39.744 48.901 37.808 8.3493 11.868 8.2743 
683 89.360 35.876 11.004 31.923 18.632 -0.62280 
684 60.815 69.647 13.242 21.818 33.702 5.1470 
685 35.196 91.335 37.336 25.134 60.475 15.843 
686 99.556 40.343 74.995 51.264 27.816 53.191 
687 62.967 79.317 29.886 28.045 45.859 10.363 
688 63.840 33.046 11.218 13.672 9.0809 0.92788 
689 70.379 2.6918 44.405 18.755 9.6252 10.220 
690 3.9868 19.907 8.1800 0.95896 1.3143 1.1239 
691 10.346 77.677 99.692 36.572 44.000 127.43 
692 89.188 77.631 52.499 48.178 54.283 23.852 
693 4.6387 38.337 26.745 2.6165 4.9356 3.1484 
694 29.291 63.861 24.713 9.9204 22.528 5.4356 
695 21.711 70.920 9.0623 11.776 29.221 6.4385 
696 40.377 44.881 8.6940 6.5665 9.1624 2.2225 
697 37.959 65.323 8.5944 11.875 24.776 4.9014 
698 22.976 30.076 24.016 1.9850 2.6545 2.2126 
699 18.859 36.325 52.585 5.5337 5.0703 19.863 
700 7.3913 20.142 60.131 6.0618 2.7973 28.905 
701 95.262 45.465 90.360 56.106 30.148 93.887 
702 61.828 76.885 94.445 44.497 47.497 110.76 
703 92.386 46.493 45.219 37.002 24.763 12.509 
704 80.207 93.529 27.309 46.990 74.492 10.885 
705 98.216 18.550 27.031 39.459 20.287 -0.33349 
706 89.513 11.561 32.463 31.160 16.187 2.1120 
707 42.186 29.681 66.171 11.853 6.0364 39.143 
708 6.5732 34.823 64.002 8.1094 5.3809 35.492 
709 98.626 89.753 55.494 64.064 75.954 32.868 
710 63.906 43.787 29.320 15.748 13.407 3.5052 
711 82.729 29.272 43.957 27.127 14.799 9.5796 
712 79.871 27.340 56.645 28.077 14.229 23.219 
713 26.363 15.765 4.5616 1.6673 1.5457 1.0469 
714 8.0488 7.7297 70.514 9.3023 3.5586 46.519 
715 20.053 25.216 64.684 7.7440 3.6215 36.077 
716 73.931 90.336 96.302 60.604 72.484 120.78 
717 23.256 63.767 95.312 28.612 27.840 110.64 
718 22.196 35.785 41.266 3.7514 4.5212 9.5710 
719 65.911 53.993 8.5531 18.703 19.921 2.6460 
720 67.939 8.5794 6.0146 15.157 8.2173 0.16087 
721 37.629 78.080 63.392 23.660 41.041 42.497 
722 20.733 75.630 25.615 14.058 35.428 8.1365 
723 45.073 80.818 91.064 37.497 50.474 98.110 
724 6.7780 64.165 91.311 26.169 27.710 98.677 
725 98.294 40.618 26.117 41.082 24.628 0.19747 
726 8.5693 34.854 35.538 2.6965 3.8849 6.1800 
727 80.446 5.0985 27.676 22.973 12.119 1.7845 
728 8.2875 80.931 71.429 24.983 46.080 54.137 
729 89.947 97.546 43.758 59.001 85.555 20.962 
730 59.723 52.693 54.206 18.970 18.319 23.074 
731 81.319 9.7810 68.440 31.722 14.904 40.488 
732 35.318 53.258 94.536 26.815 19.433 108.98 
733 44.851 66.620 81.077 26.703 30.908 73.275 
734 5.8596 58.940 56.397 11.240 18.456 27.246 
735 54.903 47.456 20.902 11.837 12.840 2.5732 
736 89.801 1.3942 75.081 40.983 19.001 53.256 
737 95.979 3.6151 37.017 37.884 19.367 3.6689 
738 81.458 42.048 25.062 26.760 18.061 1.2755 
739 14.544 37.051 86.711 17.368 8.2251 85.157 
740 91.614 19.078 97.673 52.439 22.229 113.45 
741 78.965 88.736 67.629 50.488 68.515 48.367 
742 50.904 81.447 11.655 23.235 46.305 8.5742 
743 39.319 65.662 90.514 29.589 30.782 98.309 
744 42.124 42.111 49.268 9.2079 8.8544 16.829 
745 61.209 7.5458 62.926 17.677 8.1675 33.149 
746 98.487 74.292 12.060 51.627 52.495 4.2575 
747 97.429 23.948 90.842 55.323 24.802 91.236 
748 58.892 68.681 78.879 31.993 34.588 68.994 
749 38.640 32.955 29.909 4.7723 4.5074 3.5575 
750 76.704 57.311 91.481 43.216 31.452 94.055 
751 6.6249 77.818 81.336 27.819 42.195 78.914 
752 43.595 92.741 84.230 41.311 63.197 92.036 
753 72.159 43.882 63.859 26.495 17.447 34.892 
754 63.246 25.329 53.702 16.402 8.5287 20.273 
755 15.756 62.191 67.264 15.643 22.653 45.238 
756 86.006 33.385 67.657 36.540 18.774 40.321 
757 34.613 57.959 70.733 16.959 20.011 49.359 
758 6.4379 22.095 36.806 2.0146 1.6611 6.5862 
759 75.143 95.571 60.598 49.309 75.588 40.824 
760 1.7245 23.112 21.413 1.1156 1.4337 1.5513 
761 28.234 50.802 79.808 17.472 15.097 67.006 
762 29.272 91.802 51.175 26.979 61.709 27.896 
763 92.635 83.097 42.051 51.260 60.380 16.940 
764 91.493 63.720 65.214 47.345 39.948 37.841 
765 9.2535 28.526 52.807 4.7053 3.1150 19.886 
766 50.113 57.186 0.48026 12.601 18.811 3.5094 
767 9.9062 63.009 9.0413 8.3840 20.808 4.9937 
768 57.466 61.151 68.711 24.828 26.190 46.929 
769 43.145 55.228 52.257 13.073 17.094 21.494 
770 30.914 37.265 59.653 8.5093 6.4041 29.067 
771 20.231 29.994 10.728 1.6176 2.5367 1.3044 
772 39.864 98.954 27.668 30.487 72.053 14.861 
773 14.472 2.3253 24.516 1.1411 1.2603 1.9158 
774 2.8186 9.2997 57.951 5.5210 2.4772 26.263 
775 67.577 22.482 15.601 15.020 8.4068 0.36470 
776 80.758 55.994 22.708 28.710 26.184 2.5098 
777 52.233 10.143 1.3260 7.6574 4.4905 0.78742 
778 74.771 4.4923 79.626 31.548 13.771 64.043 
779 67.067 90.435 15.557 36.216 63.851 10.796 
780 28.243 80.015 49.904 19.724 42.948 23.822 
781 33.611 79.775 29.937 17.968 41.630 10.704 
782 74.620 56.897 38.563 26.316 25.226 8.6865 
783 44.473 74.131 27.018 17.407 34.851 8.5417 
784 60.185 94.850 77.038 45.871 69.185 75.219 
785 51.880 30.940 10.104 8.0738 5.9032 0.93129 
786 57.478 21.827 64.387 16.312 7.5354 35.562 
787 57.866 20.586 39.368 11.372 6.1564 7.3985 
788 51.219 46.970 94.431 29.615 17.440 107.11 
789 10.683 1.4497 94.277 19.613 6.5238 102.32 
790 37.773 20.762 99.540 25.471 8.4051 121.48 
791 68.115 88.293 36.493 36.602 61.943 15.047 
792 20.523 46.000 91.759 21.412 13.272 98.143 
793 98.430 9.6393 9.2699 38.533 19.895 -1.4574 
794 79.810 73.284 23.355 35.500 43.171 6.1193 
795 51.336 56.269 24.230 12.974 18.447 4.1509 
796 28.031 6.5195 7.4562 1.8396 1.5708 1.2521 
797 21.242 72.329 89.598 28.652 35.508 95.043 
798 37.757 51.298 20.928 7.3622 12.659 3.2211 
799 26.434 90.497 98.976 44.575 64.367 130.08 
800 37.753 36.840 91.750 21.547 10.731 93.317 
801 8.5912 49.989 39.356 5.6854 10.742 9.4632 
802 98.443 26.409 10.967 39.370 20.661 -1.3383 
803 90.287 15.436 84.874 46.372 20.074 79.012 
804 93.413 17.834 56.598 37.539 18.547 22.743 
805 73.613 19.391 97.482 39.759 15.852 113.11 
806 37.318 64.458 61.843 17.042 25.769 35.394 
807 89.960 97.075 56.040 60.910 83.837 34.703 
808 2.4589 22.217 72.748 10.240 3.7594 51.830 
809 48.994 40.475 24.586 8.2977 8.5117 2.3454 
810 62.059 9.8853 82.020 24.986 9.9554 72.051 
811 75.771 84.317 6.6619 37.840 57.630 7.6481 
812 40.875 3.2851 80.103 16.064 6.2309 65.765 
813 9.4980 49.701 83.183 18.012 14.323 76.537 
814 90.420 68.493 79.654 53.181 46.239 66.425 
815 73.833 77.097 47.918 35.911 47.853 20.147 
816 82.449 51.057 69.546 37.741 25.888 46.175 
817 84.116 57.343 4.7211 31.669 28.352 1.9888 
818 66.889 35.914 82.846 29.276 14.425 73.874 
819 92.332 82.483 7.6072 49.930 58.705 8.2499 
820 20.677 7.5149 79.688 13.230 4.3715 67.158 
821 53.776 75.323 35.378 21.631 37.653 11.893 
822 64.467 8.1923 51.832 16.528 8.2408 17.953 
823 95.796 74.681 38.103 50.109 52.742 10.287 
824 54.725 37.086 68.182 17.710 10.170 43.132 
825 8.9149 54.774 28.450 6.1051 14.071 5.2335 
826 61.418 78.763 6.0619 26.011 45.129 7.3237 
827 80.597 13.612 90.820 41.362 17.257 93.586 
828 13.303 88.858 66.320 28.010 54.890 51.927 
829 94.183 77.797 79.642 61.070 59.650 68.235 
830 79.815 27.129 97.365 44.265 18.597 110.97 
831 72.351 8.3066 20.355 18.023 9.5986 0.39502 
832 94.846 92.261 80.005 68.691 80.637 71.181 
833 57.451 8.3607 35.354 10.682 5.8790 5.0489 
834 91.118 70.372 92.723 59.892 51.738 93.297 
835 81.226 19.828 27.941 24.460 12.834 0.91962 
836 48.417 27.425 82.194 19.571 8.1242 71.220 
END_DATA
CAL    

DESCRIPTOR "Argyll Device Calibration State"
ORIGINATOR "Argyll dispread"
CREATED "Thu Mar  8 07:21:23 2012"
KEYWORD "DEVICE_CLASS"
DEVICE_CLASS "DISPLAY"
KEYWORD "COLOR_REP"
COLOR_REP "RGB"

KEYWORD "RGB_I"
NUMBER_OF_FIELDS 4
BEGIN_DATA_FORMAT
RGB_I RGB_R RGB_G RGB_B 
END_DATA_FORMAT

NUMBER_OF_SETS 256
BEGIN_DATA
0.0000 0.0000 0.0000 0.0000 
3.9216e-03 3.9063e-03 3.9063e-03 3.9063e-03 
7.8431e-03 7.8126e-03 7.8126e-03 7.8126e-03 
0.011765 0.011719 0.011719 0.011719 
0.015686 0.015625 0.015625 0.015625 
0.019608 0.019532 0.019532 0.019532 
0.023529 0.023438 0.023438 0.023438 
0.027451 0.027344 0.027344 0.027344 
0.031373 0.031250 0.031250 0.031250 
0.035294 0.035157 0.035157 0.035157 
0.039216 0.039063 0.039063 0.039063 
0.043137 0.042969 0.042969 0.042969 
0.047059 0.046876 0.046876 0.046876 
0.050980 0.050782 0.050782 0.050782 
0.054902 0.054688 0.054688 0.054688 
0.058824 0.058595 0.058595 0.058595 
0.062745 0.062501 0.062501 0.062501 
0.066667 0.066407 0.066407 0.066407 
0.070588 0.070314 0.070314 0.070314 
0.074510 0.074220 0.074220 0.074220 
0.078431 0.078126 0.078126 0.078126 
0.082353 0.082033 0.082033 0.082033 
0.086275 0.085939 0.085939 0.085939 
0.090196 0.089845 0.089845 0.089845 
0.094118 0.093751 0.093751 0.093751 
0.098039 0.097658 0.097658 0.097658 
0.10196 0.10156 0.10156 0.10156 
0.10588 0.10547 0.10547 0.10547 
0.10980 0.10938 0.10938 0.10938 
0.11373 0.11328 0.11328 0.11328 
0.11765 0.11719 0.11719 0.11719 
0.12157 0.12110 0.12110 0.12110 
0.12549 0.12500 0.12500 0.12500 
0.12941 0.12891 0.12891 0.12891 
0.13333 0.13281 0.13281 0.13281 
0.13725 0.13672 0.13672 0.13672 
0.14118 0.14063 0.14063 0.14063 
0.14510 0.14453 0.14453 0.14453 
0.14902 0.14844 0.14844 0.14844 
0.15294 0.15235 0.15235 0.15235 
0.15686 0.15625 0.15625 0.15625 
0.16078 0.16016 0.16016 0.16016 
0.16471 0.16407 0.16407 0.16407 
0.16863 0.16797 0.16797 0.16797 
0.17255 0.17188 0.17188 0.17188 
0.17647 0.17578 0.17578 0.17578 
0.18039 0.17969 0.17969 0.17969 
0.18431 0.18360 0.18360 0.18360 
0.18824 0.18750 0.18750 0.18750 
0.19216 0.19141 0.19141 0.19141 
0.19608 0.19532 0.19532 0.19532 
0.20000 0.19922 0.19922 0.19922 
0.20392 0.20313 0.20313 0.20313 
0.20784 0.20703 0.20703 0.20703 
0.21176 0.21094 0.21094 0.21094 
0.21569 0.21485 0.21485 0.21485 
0.21961 0.21875 0.21875 0.21875 
0.22353 0.22266 0.22266 0.22266 
0.22745 0.22657 0.22657 0.22657 
0.23137 0.23047 0.23047 0.23047 
0.23529 0.23438 0.23438 0.23438 
0.23922 0.23828 0.23828 0.23828 
0.24314 0.24219 0.24219 0.24219 
0.24706 0.24610 0.24610 0.24610 
0.25098 0.25000 0.25000 0.25000 
0.25490 0.25391 0.25391 0.25391 
0.25882 0.25782 0.25782 0.25782 
0.26275 0.26172 0.26172 0.26172 
0.26667 0.26563 0.26563 0.26563 
0.27059 0.26954 0.26954 0.26954 
0.27451 0.27344 0.27344 0.27344 
0.27843 0.27735 0.27735 0.27735 
0.28235 0.28125 0.28125 0.28125 
0.28627 0.28516 0.28516 0.28516 
0.29020 0.28907 0.28907 0.28907 
0.29412 0.29297 0.29297 0.29297 
0.29804 0.29688 0.29688 0.29688 
0.30196 0.30079 0.30079 0.30079 
0.30588 0.30469 0.30469 0.30469 
0.30980 0.30860 0.30860 0.30860 
0.31373 0.31250 0.31250 0.31250 
0.31765 0.31641 0.31641 0.31641 
0.32157 0.32032 0.32032 0.32032 
0.32549 0.32422 0.32422 0.32422 
0.32941 0.32813 0.32813 0.32813 
0.33333 0.33204 0.33204 0.33204 
0.33725 0.33594 0.33594 0.33594 
0.34118 0.33985 0.33985 0.33985 
0.34510 0.34376 0.34376 0.34376 
0.34902 0.34766 0.34766 0.34766 
0.35294 0.35157 0.35157 0.35157 
0.35686 0.35547 0.35547 0.35547 
0.36078 0.35938 0.35938 0.35938 
0.36471 0.36329 0.36329 0.36329 
0.36863 0.36719 0.36719 0.36719 
0.37255 0.37110 0.37110 0.37110 
0.37647 0.37501 0.37501 0.37501 
0.38039 0.37891 0.37891 0.37891 
0.38431 0.38282 0.38282 0.38282 
0.38824 0.38672 0.38672 0.38672 
0.39216 0.39063 0.39063 0.39063 
0.39608 0.39454 0.39454 0.39454 
0.40000 0.39844 0.39844 0.39844 
0.40392 0.40235 0.40235 0.40235 
0.40784 0.40626 0.40626 0.40626 
0.41176 0.41016 0.41016 0.41016 
0.41569 0.41407 0.41407 0.41407 
0.41961 0.41798 0.41798 0.41798 
0.42353 0.42188 0.42188 0.42188 
0.42745 0.42579 0.42579 0.42579 
0.43137 0.42969 0.42969 0.42969 
0.43529 0.43360 0.43360 0.43360 
0.43922 0.43751 0.43751 0.43751 
0.44314 0.44141 0.44141 0.44141 
0.44706 0.44532 0.44532 0.44532 
0.45098 0.44923 0.44923 0.44923 
0.45490 0.45313 0.45313 0.45313 
0.45882 0.45704 0.45704 0.45704 
0.46275 0.46094 0.46094 0.46094 
0.46667 0.46485 0.46485 0.46485 
0.47059 0.46876 0.46876 0.46876 
0.47451 0.47266 0.47266 0.47266 
0.47843 0.47657 0.47657 0.47657 
0.48235 0.48048 0.48048 0.48048 
0.48627 0.48438 0.48438 0.48438 
0.49020 0.48829 0.48829 0.48829 
0.49412 0.49220 0.49220 0.49220 
0.49804 0.49610 0.49610 0.49610 
0.50196 0.50001 0.50001 0.50001 
0.50588 0.50391 0.50391 0.50391 
0.50980 0.50782 0.50782 0.50782 
0.51373 0.51173 0.51173 0.51173 
0.51765 0.51563 0.51563 0.51563 
0.52157 0.51954 0.51954 0.51954 
0.52549 0.52345 0.52345 0.52345 
0.52941 0.52735 0.52735 0.52735 
0.53333 0.53126 0.53126 0.53126 
0.53725 0.53516 0.53516 0.53516 
0.54118 0.53907 0.53907 0.53907 
0.54510 0.54298 0.54298 0.54298 
0.54902 0.54688 0.54688 0.54688 
0.55294 0.55079 0.55079 0.55079 
0.55686 0.55470 0.55470 0.55470 
0.56078 0.55860 0.55860 0.55860 
0.56471 0.56251 0.56251 0.56251 
0.56863 0.56641 0.56641 0.56641 
0.57255 0.57032 0.57032 0.57032 
0.57647 0.57423 0.57423 0.57423 
0.58039 0.57813 0.57813 0.57813 
0.58431 0.58204 0.58204 0.58204 
0.58824 0.58595 0.58595 0.58595 
0.59216 0.58985 0.58985 0.58985 
0.59608 0.59376 0.59376 0.59376 
0.60000 0.59767 0.59767 0.59767 
0.60392 0.60157 0.60157 0.60157 
0.60784 0.60548 0.60548 0.60548 
0.61176 0.60938 0.60938 0.60938 
0.61569 0.61329 0.61329 0.61329 
0.61961 0.61720 0.61720 0.61720 
0.62353 0.62110 0.62110 0.62110 
0.62745 0.62501 0.62501 0.62501 
0.63137 0.62892 0.62892 0.62892 
0.63529 0.63282 0.63282 0.63282 
0.63922 0.63673 0.63673 0.63673 
0.64314 0.64063 0.64063 0.64063 
0.64706 0.64454 0.64454 0.64454 
0.65098 0.64845 0.64845 0.64845 
0.65490 0.65235 0.65235 0.65235 
0.65882 0.65626 0.65626 0.65626 
0.66275 0.66017 0.66017 0.66017 
0.66667 0.66407 0.66407 0.66407 
0.67059 0.66798 0.66798 0.66798 
0.67451 0.67189 0.67189 0.67189 
0.67843 0.67579 0.67579 0.67579 
0.68235 0.67970 0.67970 0.67970 
0.68627 0.68360 0.68360 0.68360 
0.69020 0.68751 0.68751 0.68751 
0.69412 0.69142 0.69142 0.69142 
0.69804 0.69532 0.69532 0.69532 
0.70196 0.69923 0.69923 0.69923 
0.70588 0.70314 0.70314 0.70314 
0.70980 0.70704 0.70704 0.70704 
0.71373 0.71095 0.71095 0.71095 
0.71765 0.71485 0.71485 0.71485 
0.72157 0.71876 0.71876 0.71876 
0.72549 0.72267 0.72267 0.72267 
0.72941 0.72657 0.72657 0.72657 
0.73333 0.73048 0.73048 0.73048 
0.73725 0.73439 0.73439 0.73439 
0.74118 0.73829 0.73829 0.73829 
0.74510 0.74220 0.74220 0.74220 
0.74902 0.74611 0.74611 0.74611 
0.75294 0.75001 0.75001 0.75001 
0.75686 0.75392 0.75392 0.75392 
0.76078 0.75782 0.75782 0.75782 
0.76471 0.76173 0.76173 0.76173 
0.76863 0.76564 0.76564 0.76564 
0.77255 0.76954 0.76954 0.76954 
0.77647 0.77345 0.77345 0.77345 
0.78039 0.77736 0.77736 0.77736 
0.78431 0.78126 0.78126 0.78126 
0.78824 0.78517 0.78517 0.78517 
0.79216 0.78907 0.78907 0.78907 
0.79608 0.79298 0.79298 0.79298 
0.80000 0.79689 0.79689 0.79689 
0.80392 0.80079 0.80079 0.80079 
0.80784 0.80470 0.80470 0.80470 
0.81176 0.80861 0.80861 0.80861 
0.81569 0.81251 0.81251 0.81251 
0.81961 0.81642 0.81642 0.81642 
0.82353 0.82033 0.82033 0.82033 
0.82745 0.82423 0.82423 0.82423 
0.83137 0.82814 0.82814 0.82814 
0.83529 0.83204 0.83204 0.83204 
0.83922 0.83595 0.83595 0.83595 
0.84314 0.83986 0.83986 0.83986 
0.84706 0.84376 0.84376 0.84376 
0.85098 0.84767 0.84767 0.84767 
0.85490 0.85158 0.85158 0.85158 
0.85882 0.85548 0.85548 0.85548 
0.86275 0.85939 0.85939 0.85939 
0.86667 0.86329 0.86329 0.86329 
0.87059 0.86720 0.86720 0.86720 
0.87451 0.87111 0.87111 0.87111 
0.87843 0.87501 0.87501 0.87501 
0.88235 0.87892 0.87892 0.87892 
0.88627 0.88283 0.88283 0.88283 
0.89020 0.88673 0.88673 0.88673 
0.89412 0.89064 0.89064 0.89064 
0.89804 0.89454 0.89454 0.89454 
0.90196 0.89845 0.89845 0.89845 
0.90588 0.90236 0.90236 0.90236 
0.90980 0.90626 0.90626 0.90626 
0.91373 0.91017 0.91017 0.91017 
0.91765 0.91408 0.91408 0.91408 
0.92157 0.91798 0.91798 0.91798 
0.92549 0.92189 0.92189 0.92189 
0.92941 0.92580 0.92580 0.92580 
0.93333 0.92970 0.92970 0.92970 
0.93725 0.93361 0.93361 0.93361 
0.94118 0.93751 0.93751 0.93751 
0.94510 0.94142 0.94142 0.94142 
0.94902 0.94533 0.94533 0.94533 
0.95294 0.94923 0.94923 0.94923 
0.95686 0.95314 0.95314 0.95314 
0.96078 0.95705 0.95705 0.95705 
0.96471 0.96095 0.96095 0.96095 
0.96863 0.96486 0.96486 0.96486 
0.97255 0.96876 0.96876 0.96876 
0.97647 0.97267 0.97267 0.97267 
0.98039 0.97658 0.97658 0.97658 
0.98431 0.98048 0.98048 0.98048 
0.98824 0.98439 0.98439 0.98439 
0.99216 0.98830 0.98830 0.98830 
0.99608 0.99220 0.99220 0.99220 
1.0000 0.99611 0.99611 0.99611 
END_DATA
