CTI3   

DESCRIPTOR "Argyll Calibration Target chart information 3"
ORIGINATOR "Argyll dispread"
CREATED "Tue Jan 10 10:22:56 2012"
KEYWORD "DEVICE_CLASS"
DEVICE_CLASS "DISPLAY"
KEYWORD "COLOR_REP"
COLOR_REP "RGB_XYZ"
KEYWORD "TARGET_INSTRUMENT"
TARGET_INSTRUMENT "Hughski ColorHug"
KEYWORD "INSTRUMENT_TYPE_SPECTRAL"
INSTRUMENT_TYPE_SPECTRAL "NO"
KEYWORD "LUMINANCE_XYZ_CDM2"
LUMINANCE_XYZ_CDM2 "195.025620 190.812958 222.215759"
KEYWORD "NORMALIZED_TO_Y_100"
NORMALIZED_TO_Y_100 "YES"

NUMBER_OF_FIELDS 7
BEGIN_DATA_FORMAT
SAMPLE_ID RGB_R RGB_G RGB_B XYZ_X XYZ_Y XYZ_Z 
END_DATA_FORMAT

NUMBER_OF_SETS 836
BEGIN_DATA
1 100.00 100.00 100.00 102.21 100.00 116.46 
2 100.00 100.00 100.00 102.38 100.07 116.38 
3 100.00 100.00 100.00 102.21 100.00 116.46 
4 100.00 100.00 100.00 102.38 100.07 116.38 
5 33.330 32.622 30.968 15.947 13.405 25.534 
6 100.00 0.0000 100.00 70.252 43.950 100.40 
7 100.00 100.00 0.0000 73.125 78.433 17.106 
8 0.0000 100.00 100.00 62.482 78.623 117.69 
9 0.0000 100.00 0.0000 33.245 57.279 18.235 
10 0.0000 0.0000 100.00 30.549 22.866 101.45 
11 100.00 0.0000 0.0000 41.015 22.606 0.94105 
12 0.0000 0.0000 0.0000 1.2889 1.2292 2.1734 
13 0.0000 52.455 100.00 39.789 37.999 108.97 
14 100.00 0.0000 50.300 52.103 28.699 40.529 
15 100.00 54.739 100.00 80.404 60.695 108.04 
16 100.00 52.128 0.0000 49.919 36.922 7.7498 
17 0.0000 0.0000 46.181 10.644 6.4112 35.709 
18 0.0000 51.141 0.0000 9.6831 15.143 8.6871 
19 0.0000 100.00 51.348 44.333 63.372 57.823 
20 100.00 100.00 52.037 84.815 85.284 58.647 
21 49.216 0.0000 0.0000 10.107 5.7403 2.8821 
22 56.159 100.00 0.0000 45.209 63.430 18.641 
23 49.226 100.00 100.00 71.677 83.566 118.07 
24 44.487 0.0000 100.00 38.125 26.404 102.34 
25 100.00 44.498 52.029 59.517 40.610 47.788 
26 48.926 48.544 100.00 47.736 40.513 108.51 
27 51.368 100.00 47.250 52.926 67.885 53.542 
28 49.893 0.0000 49.033 20.817 11.730 40.087 
29 53.109 51.372 0.0000 20.097 20.766 9.0666 
30 0.0000 58.587 53.943 24.466 26.638 53.179 
31 100.00 28.065 100.00 73.902 49.582 103.29 
32 0.0000 0.0000 72.874 21.715 13.996 73.784 
33 0.0000 26.758 100.00 33.843 27.872 104.15 
34 0.0000 25.426 0.0000 4.2263 5.6113 4.6805 
35 72.508 0.0000 100.00 50.156 32.946 101.87 
36 100.00 27.395 0.0000 44.331 27.905 3.4611 
37 74.470 100.00 100.00 84.195 90.218 118.08 
38 100.00 0.0000 25.728 45.036 24.601 15.356 
39 73.862 0.0000 0.0000 22.094 12.183 3.1105 
40 100.00 100.00 25.402 76.992 80.650 31.417 
41 0.0000 75.751 100.00 49.565 55.125 114.57 
42 0.0000 75.172 0.0000 19.770 32.309 14.839 
43 0.0000 100.00 25.864 37.266 59.273 32.649 
44 100.00 0.0000 74.801 62.863 36.244 78.057 
45 0.0000 100.00 75.421 54.938 70.654 94.907 
46 24.577 0.0000 0.0000 4.3906 2.7694 2.5673 
47 26.321 100.00 0.0000 36.722 58.765 17.962 
48 100.00 75.835 0.0000 59.852 54.311 13.797 
49 100.00 100.00 77.061 95.864 93.061 97.240 
50 71.263 100.00 0.0000 52.875 67.652 18.478 
51 0.0000 0.0000 15.614 3.3110 2.3726 9.2917 
52 0.0000 30.049 70.936 24.476 19.122 73.995 
53 100.00 77.691 100.00 90.404 78.475 113.22 
54 24.486 100.00 100.00 65.451 80.193 117.46 
55 100.00 62.784 31.909 59.462 47.213 30.038 
56 29.552 0.0000 100.00 34.492 24.655 102.17 
57 32.980 70.921 100.00 52.123 53.545 113.15 
58 0.0000 27.681 40.241 12.161 10.408 33.050 
59 67.901 71.021 100.00 64.597 60.097 113.85 
60 28.154 100.00 67.829 55.236 70.066 83.254 
61 71.637 100.00 70.001 72.234 79.359 87.145 
62 58.822 58.763 53.586 37.474 33.885 53.997 
63 33.466 30.480 0.0000 10.147 9.9147 5.4224 
64 100.00 73.795 71.277 78.922 65.456 84.109 
65 68.394 29.692 0.0000 22.465 16.205 5.6803 
66 70.399 0.0000 29.039 24.722 13.584 20.652 
67 28.078 0.0000 26.956 9.3884 5.4680 18.268 
68 28.532 72.339 0.0000 22.178 31.922 13.992 
69 100.00 30.941 26.496 49.331 31.089 19.502 
70 34.597 0.0000 73.611 27.255 16.569 76.883 
71 71.573 0.0000 72.408 40.947 24.130 74.872 
72 0.0000 71.029 29.412 22.411 31.576 30.503 
73 68.386 75.008 0.0000 37.473 41.723 15.382 
74 68.088 27.309 100.00 51.301 36.825 105.64 
75 100.00 26.457 73.749 65.068 40.383 78.330 
76 74.344 100.00 27.392 59.225 71.001 34.798 
77 27.558 100.00 28.197 41.478 61.488 34.951 
78 31.196 27.465 100.00 38.319 30.355 104.98 
79 0.0000 75.521 72.824 40.398 45.923 86.536 
80 0.0000 50.930 25.553 13.594 17.460 22.302 
81 32.060 33.584 64.033 26.774 20.528 64.558 
82 81.666 55.380 0.0000 37.340 31.334 9.6381 
83 68.257 32.751 58.286 37.135 25.581 56.483 
84 0.0000 55.248 81.585 35.604 33.472 95.461 
85 73.781 52.099 100.00 60.482 48.790 108.77 
86 100.00 50.537 82.952 74.793 52.856 96.142 
87 23.550 0.0000 50.439 14.992 8.7527 41.682 
88 31.335 62.746 31.114 23.900 27.794 31.218 
89 100.00 18.310 49.418 53.572 31.297 40.598 
90 26.498 48.404 0.0000 12.270 15.311 8.1065 
91 47.910 100.00 85.744 68.205 79.146 110.03 
92 71.829 47.313 31.811 33.711 26.800 28.099 
93 31.304 64.132 69.316 37.928 37.612 78.734 
94 80.403 0.0000 54.321 38.372 21.680 46.626 
95 18.455 50.036 100.00 40.980 37.416 108.46 
96 50.653 100.00 16.345 45.104 63.252 26.312 
97 80.121 100.00 52.261 69.992 77.241 59.268 
98 0.0000 22.540 19.289 6.4474 6.3030 13.917 
99 100.00 75.273 46.886 69.475 59.918 48.916 
100 0.0000 78.618 56.625 34.554 43.476 62.040 
101 51.137 80.627 100.00 62.119 64.981 116.44 
102 48.446 0.0000 17.864 12.218 6.7543 11.318 
103 100.00 50.023 21.211 52.362 37.455 18.926 
104 50.115 20.118 0.0000 12.576 9.3347 4.0583 
105 58.099 72.426 33.158 36.775 40.116 35.331 
106 19.364 100.00 50.197 46.104 64.068 57.079 
107 50.683 19.177 100.00 41.946 30.649 104.14 
108 53.370 0.0000 81.576 35.998 22.321 88.814 
109 47.768 76.245 0.0000 28.790 37.667 15.635 
110 0.0000 18.927 55.503 15.848 11.256 49.466 
111 0.0000 13.277 0.0000 2.4908 3.0731 3.3685 
112 72.862 72.473 75.625 60.690 54.848 91.920 
113 100.00 13.904 0.0000 42.371 24.228 2.2401 
114 86.349 0.0000 100.00 59.595 38.351 101.31 
115 100.00 41.941 100.00 76.575 54.509 104.89 
116 100.00 81.785 16.464 65.127 61.660 22.279 
117 0.0000 44.063 52.596 19.479 18.708 48.133 
118 0.0000 0.0000 58.917 15.267 9.1634 52.076 
119 59.250 24.551 29.789 21.943 14.996 22.845 
120 82.730 82.874 100.00 80.494 76.844 116.03 
121 80.039 0.0000 12.618 27.371 14.973 8.0164 
122 60.957 47.729 77.817 45.690 35.502 89.864 
123 100.00 0.0000 38.618 48.525 26.715 27.284 
124 0.0000 40.090 100.00 36.626 32.477 106.55 
125 0.0000 15.283 82.322 27.320 19.236 89.747 
126 17.592 81.726 100.00 54.722 61.998 115.81 
127 100.00 14.130 100.00 71.454 45.794 101.59 
128 15.261 100.00 82.059 59.470 74.192 104.54 
129 47.770 79.418 60.389 45.640 50.077 69.259 
130 18.768 16.429 0.0000 4.9073 4.6270 3.8817 
131 55.634 100.00 65.763 62.168 73.561 80.516 
132 100.00 100.00 38.541 80.304 82.695 43.419 
133 17.421 0.0000 83.497 28.446 18.747 90.457 
134 17.237 16.758 100.00 33.990 26.194 103.23 
135 0.0000 15.067 30.039 7.5798 6.1276 20.727 
136 0.0000 0.0000 86.505 27.587 18.848 93.701 
137 75.736 72.799 50.020 51.260 48.475 52.819 
138 100.00 83.323 85.529 90.182 79.777 106.20 
139 100.00 100.00 64.894 89.995 88.694 77.663 
140 81.980 84.914 0.0000 50.949 55.945 16.366 
141 0.0000 63.757 15.490 16.337 24.406 18.290 
142 49.514 66.135 100.00 54.105 51.656 112.65 
143 100.00 0.0000 61.862 56.905 32.006 57.162 
144 24.308 45.410 49.831 22.026 20.075 46.217 
145 15.963 0.0000 17.047 5.1500 3.1328 10.384 
146 87.497 100.00 100.00 92.924 94.858 117.47 
147 52.099 25.003 75.752 36.135 24.733 82.325 
148 14.909 81.162 0.0000 24.239 38.710 15.860 
149 0.0000 34.792 14.626 8.0069 9.5852 12.933 
150 48.390 45.075 22.552 20.075 18.675 19.746 
151 83.545 65.965 100.00 72.251 61.408 111.65 
152 16.226 62.345 0.0000 15.308 22.803 11.260 
153 63.222 0.0000 14.914 17.733 9.6916 9.1755 
154 80.449 13.446 0.0000 27.527 16.377 3.3793 
155 83.917 41.562 0.0000 34.707 25.536 6.6591 
156 100.00 60.448 46.300 62.416 47.819 44.219 
157 15.584 0.0000 34.795 9.1503 5.3200 25.317 
158 17.144 65.121 100.00 46.304 46.978 111.85 
159 83.602 55.334 62.667 54.605 41.677 66.301 
160 0.0000 82.190 14.220 25.289 40.120 22.372 
161 25.132 74.856 50.616 33.717 40.294 53.399 
162 0.0000 13.769 100.00 31.751 24.710 102.65 
163 87.181 0.0000 0.0000 31.000 16.894 2.4270 
164 0.0000 100.00 39.190 40.555 61.025 44.830 
165 78.047 65.914 19.865 41.535 38.615 22.134 
166 100.00 63.961 15.865 56.373 45.823 17.605 
167 100.00 45.955 36.032 54.738 37.595 30.976 
168 15.926 100.00 16.890 37.083 58.890 26.624 
169 41.459 100.00 0.0000 40.201 60.737 18.029 
170 48.707 37.288 48.139 25.272 19.780 42.646 
171 83.381 100.00 13.285 62.296 72.592 23.850 
172 78.129 25.303 75.621 49.872 32.065 82.328 
173 12.396 0.0000 0.0000 2.5076 1.9098 2.1709 
174 37.607 48.336 83.346 40.161 33.885 96.255 
175 35.588 15.356 0.0000 8.0531 6.2667 3.5795 
176 61.245 100.00 100.00 76.706 86.065 118.17 
177 100.00 67.290 87.195 82.699 65.847 104.55 
178 0.0000 0.0000 30.615 6.3338 4.1842 20.228 
179 35.187 81.789 83.323 54.148 58.600 105.37 
180 39.525 80.194 22.879 32.357 42.600 28.387 
181 50.634 34.593 0.0000 15.313 13.355 6.8180 
182 14.175 100.00 63.146 50.487 67.329 75.075 
183 83.493 17.728 34.574 36.322 21.887 26.135 
184 23.463 22.014 79.943 30.269 21.813 87.666 
185 18.066 31.847 0.0000 7.3344 8.6072 6.0939 
186 87.201 100.00 81.361 88.183 89.345 104.02 
187 0.0000 100.00 87.950 60.142 75.170 111.37 
188 34.476 17.888 46.220 17.565 11.711 37.558 
189 18.277 0.0000 67.390 21.107 12.924 65.731 
190 100.00 87.972 0.0000 66.333 65.945 16.363 
191 82.925 34.850 100.00 62.366 45.089 105.59 
192 0.0000 88.016 100.00 56.246 67.122 116.89 
193 36.104 85.655 100.00 60.537 67.594 116.44 
194 60.981 0.0000 0.0000 14.982 8.4624 2.8725 
195 51.466 61.826 78.106 46.512 41.803 92.252 
196 78.427 31.983 22.175 32.248 22.083 17.343 
197 66.017 44.321 0.0000 24.253 20.783 7.6553 
198 83.941 0.0000 84.177 54.105 32.616 91.903 
199 20.158 46.612 23.269 14.317 16.090 20.467 
200 0.0000 100.00 62.618 48.802 66.346 74.086 
201 33.832 0.0000 13.933 8.0066 4.5398 9.0166 
202 100.00 17.286 16.322 44.728 26.188 10.068 
203 0.0000 42.204 83.926 32.842 28.346 95.250 
204 0.0000 87.774 0.0000 26.274 44.236 17.226 
205 64.988 0.0000 59.017 30.845 17.741 53.512 
206 14.677 0.0000 100.00 32.055 23.294 102.17 
207 88.934 82.673 35.021 61.398 60.204 38.929 
208 0.0000 63.778 100.00 44.041 45.201 111.44 
209 83.429 17.674 100.00 59.404 39.930 102.92 
210 30.899 100.00 85.668 63.861 76.633 109.81 
211 83.680 0.0000 41.016 36.453 20.229 31.498 
212 100.00 63.515 0.0000 53.818 43.985 10.370 
213 85.074 69.987 0.0000 45.458 42.881 13.209 
214 20.801 45.524 69.018 29.342 25.277 73.832 
215 21.382 82.482 73.017 46.755 54.154 88.634 
216 100.00 15.128 64.249 58.997 34.840 61.376 
217 36.522 0.0000 58.427 20.939 12.035 53.087 
218 22.466 81.296 33.007 31.548 43.114 37.035 
219 62.531 87.152 0.0000 40.675 51.748 17.628 
220 84.120 85.397 67.886 71.369 68.398 81.877 
221 18.870 27.336 45.389 15.711 12.600 38.003 
222 66.439 100.00 14.444 51.817 67.062 24.684 
223 41.636 22.147 19.003 13.182 9.5924 14.482 
224 61.271 100.00 81.940 71.965 80.552 104.72 
225 86.013 100.00 0.0000 62.667 72.710 17.423 
226 37.570 0.0000 0.0000 7.1822 4.2698 2.4138 
227 100.00 16.132 84.102 68.269 41.936 91.902 
228 0.0000 100.00 13.619 34.822 57.927 23.844 
229 38.905 100.00 56.471 52.892 67.927 66.098 
230 100.00 15.382 34.563 48.705 28.083 25.179 
231 36.656 14.908 100.00 37.600 27.651 103.58 
232 0.0000 62.593 66.608 31.295 33.201 72.529 
233 66.347 12.528 100.00 47.879 32.818 103.00 
234 100.00 43.375 69.233 66.696 44.871 74.101 
235 100.00 56.360 61.236 66.791 48.810 63.566 
236 0.0000 86.194 44.955 34.650 48.229 49.136 
237 64.527 87.262 100.00 71.510 74.689 117.09 
238 34.411 0.0000 42.471 14.651 8.4353 32.503 
239 80.230 59.707 85.120 63.735 51.093 101.13 
240 20.625 19.056 14.791 7.3067 6.2022 10.673 
241 15.341 34.221 100.00 36.774 30.799 105.64 
242 36.777 0.0000 87.905 33.881 22.284 96.146 
243 34.598 56.247 100.00 46.087 42.734 109.38 
244 20.860 67.629 17.418 20.645 28.761 20.559 
245 44.958 60.843 18.054 23.157 26.595 19.493 
246 37.421 60.193 0.0000 18.606 23.735 10.722 
247 84.011 33.849 42.612 41.948 28.076 36.499 
248 17.241 60.339 37.743 21.840 25.722 35.977 
249 50.650 17.261 53.278 24.175 15.501 46.652 
250 45.505 48.926 65.152 33.861 28.516 68.550 
251 44.567 84.081 39.649 39.737 49.507 44.286 
252 100.00 86.339 72.054 86.202 77.725 88.035 
253 68.140 61.135 0.0000 30.616 30.471 10.772 
254 17.930 66.986 81.403 42.119 42.452 98.342 
255 39.242 60.215 48.926 29.649 30.057 48.296 
256 20.099 18.770 62.967 21.310 14.914 60.738 
257 34.553 100.00 14.582 40.140 60.659 25.003 
258 87.345 0.0000 66.694 48.492 27.719 64.419 
259 0.0000 43.714 39.842 15.258 16.351 33.970 
260 100.00 37.705 13.955 48.112 31.879 11.713 
261 31.265 86.993 0.0000 30.415 45.902 17.352 
262 51.402 82.661 81.338 57.981 61.040 102.57 
263 100.00 100.00 12.984 74.525 79.012 22.790 
264 0.0000 37.859 0.0000 6.6533 9.5914 6.8927 
265 62.092 58.215 100.00 56.018 49.218 109.97 
266 86.186 100.00 64.100 79.380 82.709 77.536 
267 100.00 35.251 85.898 72.031 47.730 95.931 
268 63.182 89.992 41.974 50.988 59.454 48.226 
269 13.504 100.00 0.0000 34.441 57.667 18.410 
270 100.00 0.0000 13.228 42.591 23.255 6.5503 
271 63.881 40.826 100.00 51.892 40.530 107.10 
272 69.387 84.838 20.792 46.106 53.172 27.718 
273 0.0000 70.279 45.136 26.055 33.139 45.245 
274 79.094 64.754 40.908 47.021 41.094 41.019 
275 62.385 54.099 17.396 27.441 25.612 18.024 
276 64.408 14.621 0.0000 17.934 11.196 3.8422 
277 70.028 15.606 44.651 30.015 18.300 35.728 
278 0.0000 63.544 0.0000 14.092 22.608 11.602 
279 83.475 47.274 20.502 38.644 29.444 18.065 
280 55.866 0.0000 32.671 18.322 10.299 23.167 
281 58.007 0.0000 100.00 42.823 29.056 102.40 
282 100.00 0.0000 87.698 68.045 40.468 94.703 
283 0.0000 13.792 67.215 20.403 13.616 66.708 
284 84.123 17.001 58.549 44.455 26.560 53.912 
285 59.579 32.873 15.966 20.635 15.915 13.738 
286 10.410 32.998 28.659 10.939 11.041 22.211 
287 17.231 40.031 85.650 34.947 29.047 97.586 
288 37.568 41.561 10.108 14.260 14.549 11.334 
289 0.0000 69.015 85.092 42.329 44.426 102.16 
290 14.442 100.00 36.187 41.240 61.340 42.000 
291 100.00 40.549 0.0000 46.758 31.886 5.6733 
292 82.143 45.435 78.429 57.718 41.560 89.056 
293 52.674 0.0000 67.300 29.084 17.187 66.115 
294 0.0000 87.868 66.793 43.789 55.354 79.040 
295 86.530 100.00 40.524 70.888 77.254 46.518 
296 71.777 85.586 67.232 62.929 64.319 80.841 
297 43.216 100.00 31.671 46.155 64.005 38.244 
298 39.245 32.908 85.845 38.020 28.839 97.138 
299 0.0000 45.662 67.543 25.927 23.540 69.840 
300 12.161 100.00 100.00 63.678 79.011 117.87 
301 67.049 0.0000 85.516 43.759 27.057 93.359 
302 100.00 89.041 100.00 96.351 89.416 115.67 
303 20.246 60.698 56.526 28.573 29.817 58.071 
304 52.177 55.457 40.416 29.077 27.144 38.188 
305 72.617 87.018 83.932 71.644 71.570 106.35 
306 40.512 16.723 66.475 26.897 17.743 66.191 
307 68.507 49.232 50.605 37.652 29.723 47.636 
308 65.622 100.00 54.525 61.774 72.674 62.883 
309 54.115 37.240 66.394 34.557 25.555 68.924 
310 100.00 76.138 31.267 65.342 57.761 33.361 
311 54.728 65.623 0.0000 25.927 29.759 12.067 
312 63.126 12.526 64.370 33.494 20.420 62.744 
313 72.827 18.080 23.704 26.410 16.195 16.900 
314 23.268 15.278 34.947 11.771 8.2065 26.257 
315 87.648 68.954 59.645 61.741 51.878 65.196 
316 0.0000 85.595 85.198 51.413 60.111 106.86 
317 35.798 84.371 69.210 48.946 55.711 84.157 
318 36.062 47.494 35.919 20.642 19.803 31.545 
319 86.083 36.277 59.152 49.480 33.134 57.243 
320 58.210 100.00 30.361 51.072 66.341 37.199 
321 46.745 14.614 32.317 16.399 10.310 24.146 
322 81.573 73.869 86.954 71.768 63.411 106.78 
323 85.991 49.387 48.206 48.417 35.329 44.817 
324 28.062 87.906 19.654 33.020 48.481 27.281 
325 68.992 17.993 85.124 46.603 30.597 93.869 
326 100.00 66.147 100.00 84.703 68.482 110.16 
327 33.358 64.806 84.517 45.399 43.733 101.37 
328 41.351 17.736 80.522 33.988 22.947 88.816 
329 100.00 100.00 88.719 100.14 96.973 111.73 
330 66.336 0.0000 44.320 26.019 14.470 34.346 
331 64.850 67.090 12.293 32.804 34.631 17.323 
332 15.262 31.268 63.277 22.693 17.798 62.538 
333 15.008 43.663 37.300 16.185 16.314 32.563 
334 0.0000 57.895 38.078 19.198 23.029 35.555 
335 66.599 58.458 67.871 47.042 39.579 75.241 
336 59.191 18.651 15.215 17.875 11.603 11.157 
337 66.781 31.140 84.629 47.455 33.273 95.892 
338 88.033 85.158 52.140 67.337 65.448 57.972 
339 36.882 100.00 100.00 68.375 81.663 117.93 
340 26.102 33.094 17.006 11.042 10.733 14.201 
341 56.309 36.861 35.862 24.574 19.166 30.565 
342 45.839 65.587 67.033 40.896 39.510 75.796 
343 83.709 81.172 16.406 52.496 54.031 23.505 
344 0.0000 48.132 13.005 10.414 14.572 13.292 
345 87.176 50.021 100.00 69.008 52.583 108.07 
346 51.219 84.244 13.730 35.908 47.076 23.179 
347 60.606 71.415 48.406 41.482 42.097 49.626 
348 0.0000 11.359 12.718 3.6014 3.4190 7.9867 
349 86.429 49.705 33.145 44.638 33.311 29.114 
350 34.056 40.958 100.00 41.811 35.239 107.09 
351 100.00 30.557 59.628 59.533 37.162 56.751 
352 88.497 26.902 13.449 36.779 23.189 10.185 
353 14.167 51.980 88.218 38.488 34.672 102.39 
354 13.784 12.983 49.370 14.086 9.4109 40.202 
355 15.018 88.441 48.062 38.339 52.175 53.020 
356 87.790 25.769 89.215 61.636 40.287 99.775 
357 0.0000 33.206 55.865 18.475 15.598 51.426 
358 74.324 76.029 35.536 47.687 48.275 37.882 
359 65.863 57.223 42.324 36.439 31.969 40.867 
360 30.893 54.646 13.136 16.649 19.886 15.261 
361 0.0000 34.360 28.321 10.407 10.832 22.434 
362 15.443 77.087 85.116 48.420 52.389 105.72 
363 63.381 68.947 68.521 50.212 46.557 78.677 
364 69.733 27.566 42.917 31.307 20.828 35.870 
365 32.754 100.00 42.760 46.541 64.093 49.438 
366 47.096 29.481 34.829 19.381 14.463 28.668 
367 8.5451 71.948 62.695 34.589 39.350 70.147 
368 0.0000 86.048 29.300 30.450 45.679 34.455 
369 53.697 51.572 85.367 46.726 38.232 100.62 
370 17.608 56.690 12.515 15.125 20.136 15.396 
371 90.638 14.414 49.227 45.549 26.450 40.570 
372 63.248 63.640 89.550 56.681 49.726 107.66 
373 100.00 85.976 58.455 79.600 73.116 66.224 
374 9.8311 28.027 7.5567 6.1585 7.2125 7.7706 
375 89.831 64.313 69.506 65.402 52.277 78.740 
376 31.754 12.995 25.543 10.699 7.3181 17.553 
377 75.914 45.966 64.957 47.416 34.809 67.948 
378 7.5735 50.695 58.941 24.038 23.509 58.263 
379 100.00 69.835 58.912 71.115 57.704 63.133 
380 32.211 34.376 48.339 20.572 16.642 42.241 
381 13.901 12.159 73.555 24.334 16.069 77.095 
382 87.071 9.0280 77.653 54.252 32.408 83.196 
383 23.272 85.409 84.290 53.539 60.947 105.97 
384 93.289 39.480 26.145 45.707 31.281 20.690 
385 65.769 59.630 30.967 34.129 31.406 30.313 
386 100.00 32.265 41.803 53.378 33.861 34.078 
387 86.568 85.281 86.961 81.372 76.393 109.22 
388 52.577 86.830 30.016 41.176 51.828 35.722 
389 47.921 40.199 76.902 37.968 29.082 86.314 
390 22.360 86.619 61.580 43.800 53.877 71.742 
391 52.232 33.601 88.787 42.877 31.910 100.70 
392 0.0000 28.523 86.267 30.903 24.147 96.221 
393 43.497 67.879 39.551 31.295 34.195 40.499 
394 39.877 45.261 0.0000 14.482 15.532 8.1926 
395 86.940 12.430 24.699 35.447 20.390 16.498 
396 28.363 55.339 90.398 42.685 38.535 106.22 
397 39.018 70.534 57.879 37.393 39.859 63.035 
398 12.833 28.519 78.828 28.986 22.039 86.513 
399 68.350 31.815 69.975 41.715 28.719 73.887 
400 56.520 26.226 41.626 24.104 16.751 33.975 
401 12.938 46.218 0.0000 9.6536 13.395 7.8459 
402 8.6938 60.179 26.117 17.776 23.300 24.968 
403 51.995 89.429 96.608 66.683 73.037 117.09 
404 46.905 47.746 48.909 27.301 23.521 45.703 
405 14.352 81.814 19.479 27.019 40.874 25.375 
406 71.482 38.117 12.273 27.219 20.726 12.168 
407 86.616 60.785 10.012 43.447 37.319 14.375 
408 71.811 88.979 52.186 57.996 62.669 58.845 
409 43.213 100.00 72.083 60.914 73.251 90.365 
410 73.920 23.444 8.2853 25.386 16.376 8.1793 
411 40.629 85.534 53.423 43.631 52.987 59.098 
412 38.955 52.128 22.885 19.576 20.699 21.150 
413 46.480 12.229 8.6707 11.133 7.1860 6.8619 
414 40.855 33.301 22.309 15.565 13.473 17.390 
415 76.365 66.787 61.060 53.120 46.430 66.265 
416 7.5076 12.025 20.590 5.6655 4.1767 14.069 
417 85.930 27.031 0.0000 33.075 21.220 5.1277 
418 100.00 87.757 44.060 75.112 71.147 48.107 
419 41.543 25.624 54.896 23.518 16.449 49.983 
420 59.533 76.669 91.789 61.967 60.644 112.76 
421 58.226 12.079 28.862 19.385 11.531 20.350 
422 50.514 8.8602 88.281 38.337 24.960 97.500 
423 41.983 0.0000 31.301 13.535 7.7758 21.784 
424 28.024 36.455 77.877 32.716 25.929 86.650 
425 12.718 41.027 11.129 9.7183 12.159 11.712 
426 26.194 75.573 88.088 50.371 53.312 107.96 
427 28.936 71.474 37.671 28.665 34.741 39.405 
428 90.497 74.770 26.512 56.140 51.691 29.250 
429 17.514 75.984 41.507 30.254 38.629 44.343 
430 16.621 64.069 68.891 34.847 35.879 77.822 
431 12.420 21.661 36.669 11.333 8.8386 28.478 
432 52.915 46.814 10.465 19.649 18.644 12.298 
433 56.979 91.194 52.490 51.955 61.307 59.520 
434 25.140 52.299 42.419 21.629 21.792 39.611 
435 25.587 6.8296 13.004 6.5239 4.4043 8.1152 
436 55.018 14.818 41.328 21.458 13.087 32.873 
437 93.397 56.942 87.959 73.814 55.570 103.51 
438 28.374 12.057 85.683 32.065 21.817 94.876 
439 78.265 6.7088 92.468 53.498 33.978 100.64 
440 39.694 71.314 6.3658 24.658 32.569 15.662 
441 73.259 45.059 87.294 55.316 41.118 101.08 
442 26.381 57.692 76.454 37.438 34.733 88.083 
443 66.587 33.629 31.299 27.580 19.708 25.911 
444 88.523 74.434 46.718 59.591 54.019 47.974 
445 76.836 59.920 49.912 45.801 38.458 48.472 
446 33.152 90.418 31.148 38.085 52.714 37.027 
447 55.924 53.388 68.505 40.519 33.705 74.917 
448 77.248 91.798 41.448 60.145 66.082 47.614 
449 26.737 89.225 45.445 39.911 53.323 50.158 
450 87.642 100.00 25.942 67.709 75.509 32.428 
451 68.631 100.00 40.532 58.748 71.034 46.186 
452 14.485 50.449 49.078 21.123 21.218 45.076 
453 10.654 10.664 89.702 30.365 21.669 97.795 
454 31.962 49.108 62.920 29.514 25.847 65.287 
455 8.6779 22.468 68.278 22.449 16.194 68.568 
456 74.727 90.586 6.3447 49.991 58.795 20.509 
457 0.0000 12.136 44.106 10.802 7.4875 33.782 
458 43.350 78.123 73.610 49.512 52.122 89.330 
459 10.925 11.786 9.5801 4.3308 3.5048 7.1713 
460 15.591 37.386 50.832 18.717 16.717 45.057 
461 10.685 68.959 9.3113 18.472 27.997 16.387 
462 92.017 72.247 12.692 53.022 48.225 18.686 
463 89.839 77.431 73.400 73.550 64.915 88.573 
464 47.450 74.511 18.753 30.212 37.725 23.510 
465 50.097 90.816 69.461 56.387 64.167 85.291 
466 82.755 34.052 82.994 57.537 39.377 93.532 
467 46.786 72.919 85.794 52.996 52.124 105.66 
468 9.3304 90.457 73.518 49.635 60.899 91.004 
469 88.590 61.902 22.128 47.532 39.877 22.155 
470 100.00 61.262 74.222 74.532 56.171 85.417 
471 86.777 8.8992 8.4672 32.224 18.216 5.8145 
472 39.582 85.966 11.798 33.385 46.815 22.545 
473 85.958 0.0000 24.986 33.692 18.530 16.044 
474 80.299 22.552 47.163 38.374 23.636 39.175 
475 7.2180 45.128 76.547 30.638 26.491 84.816 
476 55.989 48.521 58.428 34.271 28.092 58.037 
477 50.728 10.774 73.284 32.022 20.098 76.414 
478 71.269 10.344 11.008 22.344 12.959 8.2620 
479 91.768 45.194 10.385 42.336 30.786 10.922 
480 7.8976 42.553 25.130 11.965 13.629 21.110 
481 54.269 55.846 25.175 25.721 25.329 24.172 
482 41.937 24.646 5.4249 11.450 9.4953 6.0583 
483 89.502 33.423 70.991 56.983 37.257 74.775 
484 75.301 54.745 14.159 34.198 29.522 15.701 
485 76.653 6.2202 65.750 41.203 23.928 64.255 
486 58.072 77.769 7.4688 34.248 41.825 18.435 
487 27.429 73.801 76.267 44.851 46.972 92.631 
488 39.961 56.279 74.128 39.027 34.718 84.024 
489 23.430 28.561 70.622 26.735 19.928 73.725 
490 91.285 49.258 68.377 60.520 43.054 73.814 
491 95.591 89.122 11.382 65.410 66.625 21.161 
492 28.451 92.151 76.841 55.119 65.506 96.677 
493 26.242 26.080 53.808 19.617 14.274 48.228 
494 15.957 92.746 24.983 34.809 52.731 31.966 
495 13.563 9.1545 61.533 18.465 11.701 57.518 
496 13.216 24.593 54.939 17.513 13.246 48.602 
497 91.885 89.769 79.537 85.071 80.005 100.72 
498 100.00 88.684 29.334 71.801 69.917 33.735 
499 34.090 65.771 20.136 22.946 28.853 21.963 
500 20.961 77.373 9.9329 24.277 36.212 19.225 
501 48.985 66.059 50.556 35.157 35.770 51.420 
502 92.409 9.0241 90.897 63.377 39.235 98.190 
503 40.340 11.090 52.408 20.116 12.578 44.114 
504 41.367 58.198 88.277 45.965 40.958 104.17 
505 72.147 77.604 91.982 68.771 64.810 112.79 
506 12.761 67.714 50.147 27.737 32.494 50.974 
507 76.617 25.882 91.445 54.904 37.154 102.26 
508 92.734 34.742 50.285 50.728 32.801 44.004 
509 16.114 24.640 92.845 34.011 26.001 102.71 
510 22.589 72.255 61.762 36.250 40.369 68.603 
511 79.742 58.911 30.090 42.214 35.675 28.787 
512 75.000 100.00 87.265 81.522 86.433 111.39 
513 22.068 58.052 24.509 18.324 22.346 23.548 
514 29.302 20.341 8.3315 8.0582 6.9088 6.9694 
515 75.009 40.707 41.951 36.970 27.132 36.728 
516 76.599 13.357 74.764 46.339 28.381 78.887 
517 10.272 88.110 94.612 56.596 66.290 116.06 
518 34.093 23.728 89.777 36.399 26.620 100.02 
519 29.867 13.694 72.950 27.037 17.698 75.623 
520 64.983 91.010 77.614 66.792 70.611 98.389 
521 66.135 26.770 20.928 23.556 16.087 16.237 
522 36.207 25.309 75.344 31.171 22.140 81.016 
523 78.931 73.018 10.687 43.696 43.797 18.022 
524 30.391 22.415 20.277 10.591 8.4540 14.383 
525 11.242 82.956 64.472 41.402 50.503 75.452 
526 80.459 87.628 28.607 56.222 60.525 34.670 
527 27.707 31.870 88.315 36.117 27.843 99.970 
528 62.060 36.458 46.606 29.899 21.883 40.535 
529 29.542 11.104 53.546 17.924 11.350 45.880 
530 68.762 19.114 33.778 26.440 16.472 25.532 
531 59.637 48.524 31.174 26.821 23.248 27.091 
532 48.298 33.520 100.00 43.242 34.148 104.96 
533 45.598 28.163 66.475 29.541 20.922 66.953 
534 29.918 44.928 90.506 39.590 33.405 102.93 
535 78.316 92.636 77.206 75.482 76.936 96.785 
536 91.281 57.367 55.776 57.235 43.743 54.523 
537 21.692 25.080 26.495 10.531 9.1894 18.987 
538 74.304 63.813 94.636 64.066 54.843 110.16 
539 88.481 29.745 32.468 41.292 26.263 25.752 
540 59.486 41.236 87.042 46.692 35.513 99.103 
541 92.045 78.449 60.137 69.409 61.959 66.578 
542 61.977 24.673 6.6648 18.695 13.187 6.9182 
543 40.162 92.786 90.522 63.473 72.633 113.52 
544 36.748 77.066 93.097 54.990 57.378 113.48 
545 20.161 69.446 29.150 23.602 30.994 29.999 
546 47.187 88.771 0.0000 35.140 49.817 17.918 
547 44.188 43.219 90.474 42.822 34.430 103.61 
548 8.9634 92.695 8.7975 30.967 50.963 20.527 
549 32.387 45.286 72.510 32.715 27.399 78.859 
550 48.879 44.876 39.601 24.253 20.932 34.605 
551 61.287 11.463 77.817 38.434 24.339 83.389 
552 25.396 43.768 11.365 12.181 14.298 11.869 
553 76.983 53.137 73.131 53.887 41.404 81.687 
554 43.083 65.437 28.359 26.849 30.370 29.138 
555 11.708 51.209 32.796 16.169 18.619 28.679 
556 71.238 41.136 23.296 29.754 22.757 19.922 
557 21.758 7.4731 22.877 7.6816 5.0065 15.087 
558 23.721 37.471 27.997 13.711 13.219 22.916 
559 10.847 0.0000 52.434 13.398 8.1257 42.351 
560 52.184 32.794 25.185 19.066 14.924 19.649 
561 25.164 57.264 2.5113 15.033 20.108 11.028 
562 25.531 62.973 45.088 26.127 29.128 43.844 
563 59.406 92.015 9.9812 43.151 56.470 22.534 
564 9.0031 43.883 94.414 37.355 32.563 105.74 
565 29.380 24.618 40.510 15.659 11.701 32.259 
566 56.497 10.252 5.6832 14.166 8.6627 5.4199 
567 70.521 20.255 56.201 34.615 21.573 49.903 
568 81.365 40.212 31.436 37.934 27.209 25.814 
569 56.550 19.280 86.012 40.955 27.690 95.390 
570 25.096 37.115 57.433 22.891 19.145 54.155 
571 87.229 43.818 88.570 64.866 46.200 101.32 
572 9.0945 89.498 36.178 34.719 50.576 40.810 
573 60.107 91.337 22.013 44.817 56.988 29.461 
574 43.216 91.406 24.486 39.323 53.858 31.086 
575 55.315 58.321 10.243 24.277 25.793 14.103 
576 63.269 92.590 62.685 60.016 67.230 74.621 
577 20.915 89.348 8.0709 30.468 47.614 20.726 
578 33.841 42.636 23.687 16.019 15.909 20.258 
579 82.320 36.054 11.955 33.686 23.590 11.150 
580 78.197 45.345 53.373 43.411 31.980 49.625 
581 87.492 64.105 49.348 54.782 45.501 48.274 
582 80.208 74.738 68.707 63.010 56.874 79.594 
583 12.847 33.194 39.194 14.026 12.759 31.934 
584 15.215 55.484 78.368 35.554 33.059 90.057 
585 25.437 6.1049 39.533 12.213 7.4027 29.797 
586 57.870 49.584 46.944 30.956 25.891 42.985 
587 67.620 65.849 53.975 44.288 40.478 55.726 
588 26.643 41.991 38.871 18.068 17.173 32.959 
589 42.800 8.7865 22.456 12.069 7.6191 14.605 
590 57.049 35.385 77.322 40.555 29.250 85.733 
591 36.112 43.832 54.787 25.576 22.267 51.171 
592 62.719 62.395 77.348 50.787 44.253 90.629 
593 60.706 81.416 54.884 49.138 52.841 60.677 
594 90.695 4.9508 56.719 47.237 26.447 49.689 
595 43.936 24.373 43.898 20.115 14.049 36.323 
596 4.3825 24.210 30.612 9.1150 8.3037 22.292 
597 53.911 79.942 42.742 41.256 47.473 45.842 
598 90.172 22.149 68.288 53.445 32.931 67.944 
599 77.586 29.345 63.000 43.607 28.758 61.565 
600 60.572 25.668 63.187 33.632 22.174 61.675 
601 97.729 10.927 74.359 62.599 36.789 77.153 
602 57.769 8.0576 53.146 25.588 15.088 45.377 
603 77.517 92.691 61.488 67.969 71.529 72.473 
604 44.198 38.831 60.002 28.612 22.758 57.859 
605 65.034 81.736 33.440 44.709 50.138 37.957 
606 67.829 69.791 24.123 37.580 38.631 26.003 
607 25.001 99.668 13.437 37.791 59.497 23.616 
608 89.683 25.837 56.548 48.690 30.209 50.955 
609 41.656 51.246 11.867 17.752 19.433 13.439 
610 23.720 38.131 96.840 38.482 32.074 106.45 
611 78.049 6.5915 25.803 28.909 16.163 17.712 
612 46.116 56.291 55.290 32.129 29.562 55.046 
613 92.023 9.1483 37.844 42.433 23.797 27.635 
614 91.068 89.904 23.497 64.068 66.445 29.692 
615 76.477 27.045 32.402 32.117 21.128 24.852 
616 42.661 5.2197 80.136 32.474 20.578 86.733 
617 6.2584 65.435 77.208 37.809 38.754 90.652 
618 89.710 95.846 52.578 74.814 77.922 58.596 
619 88.397 77.149 94.397 80.560 71.377 113.61 
620 78.888 91.034 93.609 81.065 81.556 115.64 
621 47.820 92.501 59.000 51.789 62.193 69.085 
622 23.826 47.444 80.539 35.346 30.428 91.660 
623 9.0413 12.290 37.978 9.9100 6.8255 28.053 
624 23.331 16.308 46.267 14.794 10.018 37.194 
625 35.756 10.704 35.900 13.829 8.6506 26.240 
626 2.9969 77.210 88.879 47.738 52.560 108.89 
627 28.436 75.743 23.117 26.738 36.395 26.833 
628 9.0221 78.989 30.580 27.661 39.290 33.743 
629 8.8030 17.371 0.30943 3.7117 4.2389 3.7059 
630 60.160 36.719 3.7856 19.969 16.393 7.9187 
631 7.0698 90.899 57.373 41.922 55.944 64.574 
632 79.721 9.5270 45.163 35.372 20.161 35.512 
633 10.879 74.236 95.746 49.226 53.337 113.18 
634 64.217 22.086 74.373 39.786 26.132 78.928 
635 70.017 40.853 76.607 47.784 34.919 85.420 
636 4.7334 24.411 48.203 14.048 11.096 39.207 
637 50.973 26.358 13.005 15.222 11.857 10.241 
638 2.5724 55.065 90.994 38.630 36.583 104.37 
639 90.879 45.601 57.982 54.339 37.833 56.060 
640 68.145 79.947 44.862 48.280 50.995 47.473 
641 1.4829 67.595 54.158 28.029 32.884 55.090 
642 98.031 12.492 26.865 45.683 25.943 16.952 
643 76.470 93.209 18.886 54.570 63.731 27.411 
644 87.292 66.922 80.462 69.569 57.153 95.815 
645 10.233 96.829 47.233 42.329 60.736 52.217 
646 68.028 67.167 39.031 40.266 38.812 38.601 
647 45.312 94.998 9.2426 39.661 57.445 21.974 
648 77.970 53.709 40.015 41.481 33.148 36.714 
649 39.314 57.645 38.800 25.225 26.039 36.417 
650 57.297 82.865 67.439 53.658 57.043 79.974 
651 37.555 22.599 31.928 14.897 10.853 24.103 
652 92.350 23.597 40.911 45.370 27.366 32.513 
653 9.3660 69.976 21.141 20.674 29.695 23.771 
654 51.187 19.140 23.012 15.886 10.894 15.721 
655 79.397 80.212 79.858 70.776 65.826 99.236 
656 95.392 55.226 12.927 49.419 37.804 14.235 
657 41.375 92.945 46.055 45.218 59.003 50.825 
658 45.146 82.618 89.901 58.923 62.928 111.34 
659 77.443 63.822 71.275 57.205 47.517 81.836 
660 53.973 31.254 55.289 28.397 20.142 50.653 
661 67.321 92.812 91.875 74.530 78.628 114.82 
662 39.436 37.141 40.709 20.346 16.973 34.541 
663 97.731 46.918 91.781 75.974 53.751 102.94 
664 40.993 6.1961 67.428 25.961 15.839 66.239 
665 79.123 80.606 57.718 60.240 58.608 63.987 
666 28.913 52.537 29.968 19.048 20.319 27.134 
667 14.658 37.254 73.035 28.142 22.776 78.057 
668 82.795 16.173 87.132 55.533 35.272 95.717 
669 8.3262 91.659 83.695 54.596 65.768 106.05 
670 45.527 77.031 49.285 38.572 44.023 51.537 
671 9.0854 40.031 62.080 23.032 19.914 61.217 
672 95.919 70.219 40.212 62.186 52.224 39.756 
673 42.670 92.336 77.786 59.043 67.973 98.253 
674 94.260 40.143 78.486 65.644 44.595 86.407 
675 65.647 53.082 89.436 53.535 43.041 104.04 
676 81.521 18.364 16.183 30.593 18.617 10.909 
677 8.4681 2.0260 9.4857 2.9978 2.1760 5.6941 
678 30.651 60.550 56.553 30.190 30.736 57.223 
679 53.483 73.043 73.646 49.343 48.948 86.848 
680 90.408 54.335 1.4985 43.054 33.819 9.6132 
681 26.668 7.7075 63.496 20.993 13.418 59.171 
682 58.933 25.917 94.913 45.625 32.983 103.95 
683 9.8548 0.76371 72.617 22.090 13.942 73.117 
684 47.990 75.517 31.176 33.479 39.998 33.498 
685 48.087 9.0808 60.091 25.043 15.057 54.929 
686 10.988 21.876 19.614 7.2888 6.5518 14.241 
687 22.598 55.646 65.078 30.481 29.170 68.790 
688 9.0697 82.142 78.531 47.183 54.671 96.421 
689 90.301 42.459 39.120 47.071 32.559 33.510 
690 47.378 36.472 11.171 15.761 14.007 11.377 
691 49.382 1.8032 9.6600 11.151 6.5079 6.0041 
692 1.9703 20.522 9.5307 4.5583 5.1298 7.4203 
693 81.649 69.738 31.735 48.464 44.385 33.134 
694 34.530 73.626 67.130 41.578 44.385 76.543 
695 81.659 80.940 43.479 57.411 56.845 46.698 
696 10.291 63.628 90.197 42.368 42.413 105.86 
697 9.3825 51.554 18.669 12.813 16.476 17.374 
698 17.762 96.201 72.191 53.639 67.812 88.664 
699 67.560 52.693 6.6256 27.300 24.843 10.962 
700 45.853 7.7641 41.225 17.510 10.328 31.475 
701 10.950 73.197 73.054 40.014 44.036 85.844 
702 30.698 39.723 1.5250 11.330 12.437 7.4754 
703 81.002 52.333 91.825 63.663 48.588 106.41 
704 51.213 8.0050 98.430 40.455 28.572 101.87 
705 5.4368 7.4372 80.307 25.916 17.359 86.094 
706 23.483 5.5586 76.358 26.242 16.892 80.023 
707 32.278 78.328 11.186 26.916 38.420 19.308 
708 4.5816 10.694 55.933 15.156 9.8141 48.566 
709 89.829 62.524 36.614 52.352 42.835 35.220 
710 80.544 47.439 8.1742 34.539 27.079 10.803 
711 52.750 18.751 64.422 29.553 19.116 62.366 
712 62.358 2.6644 71.659 35.162 21.096 72.722 
713 64.674 45.928 67.561 41.503 31.633 70.936 
714 9.4766 33.184 90.141 33.837 27.230 100.76 
715 70.466 56.323 80.091 53.993 43.686 93.514 
716 57.237 71.111 99.776 59.102 57.296 112.77 
717 87.665 54.898 77.235 63.468 47.578 88.182 
718 16.330 71.595 0.85939 19.361 29.644 13.984 
719 35.300 79.117 32.908 32.560 41.976 36.265 
720 28.667 65.599 9.3944 19.792 26.414 15.825 
721 6.4435 54.089 70.225 30.042 28.660 76.091 
722 61.839 6.8281 38.810 22.848 13.195 29.406 
723 26.820 89.870 94.786 60.103 69.525 116.63 
724 5.7523 92.776 20.962 32.458 51.898 27.869 
725 75.073 63.309 7.8752 36.384 34.668 14.121 
726 61.102 20.846 50.693 27.431 17.960 42.069 
727 22.212 92.446 35.502 37.961 54.356 40.475 
728 92.086 35.290 8.3735 40.263 26.945 8.5609 
729 6.1371 56.812 8.6847 12.840 18.881 12.794 
730 17.496 95.134 90.968 60.424 73.133 113.79 
731 97.652 22.856 91.040 70.521 45.190 99.609 
732 49.838 56.677 94.927 49.695 43.705 109.39 
733 52.347 66.189 89.979 52.742 48.907 107.62 
734 9.2025 61.070 60.052 28.201 30.027 61.787 
735 91.322 33.889 95.067 67.412 46.425 104.48 
736 35.535 50.421 47.701 24.466 22.735 44.182 
737 90.687 67.765 92.424 77.032 63.289 109.64 
738 23.140 27.979 7.2528 8.0856 8.1717 7.4708 
739 74.571 37.346 94.340 55.961 41.162 104.71 
740 94.499 74.711 82.469 80.137 67.599 100.21 
741 43.662 60.242 6.7089 20.734 24.728 12.880 
742 94.229 53.959 43.646 54.934 40.890 39.041 
743 88.819 11.383 66.503 50.444 29.456 64.281 
744 32.047 21.909 62.334 23.525 16.434 58.793 
745 54.950 92.541 82.626 65.121 71.883 104.86 
746 71.956 56.212 58.905 44.719 36.434 59.938 
747 99.325 70.902 23.244 60.647 51.691 24.640 
748 90.147 23.875 23.537 39.153 23.987 16.815 
749 4.9251 37.670 45.258 15.630 14.670 38.044 
750 92.003 4.3641 46.508 44.367 24.742 36.146 
751 8.0287 68.481 36.597 23.429 30.753 35.834 
752 94.712 55.380 27.877 51.444 39.105 24.403 
753 59.036 41.793 22.693 23.373 19.607 19.208 
754 75.085 4.1457 81.543 47.055 28.645 87.400 
755 63.301 73.580 81.794 58.331 54.834 100.54 
756 87.889 97.159 72.707 83.000 84.307 89.746 
757 39.453 9.5152 91.318 36.170 24.510 99.428 
758 26.353 18.572 94.841 35.161 25.804 103.25 
759 19.325 8.4249 4.4960 4.3277 3.3480 4.1213 
760 14.945 80.063 53.214 35.063 44.534 56.915 
761 56.393 7.7606 18.733 15.832 9.1816 12.347 
762 53.296 91.987 40.941 47.181 58.934 46.099 
763 91.714 5.4089 17.461 36.790 20.241 10.678 
764 35.214 69.883 47.511 31.793 35.589 47.752 
765 54.174 65.046 39.976 33.172 33.599 39.876 
766 0.48739 73.380 13.583 20.278 31.084 19.874 
767 45.038 24.464 90.440 39.170 28.314 100.38 
768 63.657 41.354 57.623 35.390 26.476 55.018 
769 60.349 99.318 73.525 67.453 77.149 91.862 
770 45.802 53.303 31.659 23.660 23.257 28.930 
771 66.010 80.362 74.383 59.755 59.132 90.803 
772 23.949 64.714 91.592 45.563 44.794 108.26 
773 74.347 9.4171 54.078 34.762 20.223 46.277 
774 92.529 91.743 63.785 78.869 76.448 75.696 
775 27.251 94.198 55.878 46.807 61.421 63.554 
776 35.570 11.733 10.395 8.5412 6.0477 6.7629 
777 2.5649 51.038 46.451 18.882 20.063 41.779 
778 91.133 22.688 78.884 59.468 37.404 84.915 
779 9.3684 3.2632 25.712 6.0646 4.0871 15.935 
780 89.782 58.781 98.566 73.299 58.429 108.83 
781 91.178 92.619 40.078 69.894 71.854 44.884 
782 67.918 75.593 60.707 51.700 50.761 67.726 
783 21.214 7.6666 93.134 32.495 23.147 100.29 
784 16.312 15.496 27.702 8.7074 6.4522 19.067 
785 55.058 61.647 63.033 40.215 36.591 67.598 
786 64.827 43.743 39.237 30.544 24.211 34.000 
787 76.437 76.558 23.556 45.839 47.044 27.640 
788 23.505 31.715 37.321 14.954 12.722 30.526 
789 73.049 16.469 95.896 51.845 34.900 103.54 
790 86.350 91.415 7.6506 58.747 64.698 20.401 
791 75.383 18.628 65.782 41.430 25.553 64.504 
792 69.893 90.723 32.423 52.090 60.472 38.613 
793 48.410 50.555 75.728 39.727 32.727 85.077 
794 66.070 6.5086 22.487 20.908 11.937 14.795 
795 56.705 65.792 24.032 30.437 32.677 24.584 
796 76.562 34.662 51.314 39.010 26.784 45.359 
797 79.282 37.864 70.629 49.609 34.566 73.973 
798 61.860 83.501 85.092 64.035 64.985 106.65 
799 55.206 71.204 58.769 42.911 42.953 63.942 
800 41.161 67.679 77.016 44.949 43.738 91.392 
801 39.082 35.254 73.407 32.616 24.774 78.553 
802 54.232 98.131 91.703 71.801 81.923 114.62 
803 52.316 68.565 11.225 27.290 32.508 17.095 
804 13.126 31.651 17.948 8.9352 9.2194 14.235 
805 41.211 67.640 94.245 51.710 49.909 111.62 
806 6.2691 78.009 44.653 30.195 40.179 46.577 
807 18.472 48.506 58.249 24.432 22.777 56.739 
808 91.193 95.684 89.468 91.642 90.039 112.40 
809 90.576 89.753 96.277 88.995 85.233 116.38 
810 91.055 18.181 4.8873 36.016 21.527 4.3984 
811 9.5158 57.466 44.934 21.462 24.148 41.384 
812 74.253 8.6243 35.462 28.806 16.471 25.722 
813 30.958 79.592 58.964 40.142 47.119 65.123 
814 64.297 44.200 12.447 24.455 20.489 12.823 
815 90.387 78.022 2.1230 53.387 51.932 15.156 
816 38.276 57.670 62.470 33.138 31.029 65.304 
817 69.306 81.298 10.013 41.901 48.182 20.150 
818 11.786 56.194 98.458 41.743 40.221 109.17 
819 37.361 92.605 63.696 51.133 62.813 75.126 
820 99.099 26.774 11.310 45.286 27.989 7.6357 
821 33.690 80.487 44.100 36.008 45.290 46.858 
822 58.378 47.696 96.771 50.369 41.265 107.57 
823 8.3100 80.971 8.1118 24.086 38.605 18.467 
824 36.053 31.424 11.914 11.924 10.925 10.779 
825 23.960 74.365 97.709 51.465 54.821 113.77 
826 2.2643 18.895 91.763 31.168 23.274 99.835 
827 33.230 92.745 7.8538 34.801 53.074 20.446 
828 74.486 38.764 0.43818 27.525 20.938 6.9555 
829 72.293 67.732 84.511 61.423 53.620 101.95 
830 71.349 55.278 23.750 33.473 29.265 22.276 
831 10.998 19.916 82.596 28.764 21.057 89.654 
832 1.5798 33.328 79.698 29.102 23.173 88.332 
833 61.955 8.9911 90.766 43.636 28.371 99.517 
834 44.195 40.277 31.491 19.810 17.264 26.293 
835 59.060 79.425 21.320 37.493 44.620 26.231 
836 9.8214 2.9467 42.842 10.641 6.2544 32.658 
END_DATA
CAL    

DESCRIPTOR "Argyll Device Calibration State"
ORIGINATOR "Argyll dispread"
CREATED "Tue Jan 10 10:22:56 2012"
KEYWORD "DEVICE_CLASS"
DEVICE_CLASS "DISPLAY"
KEYWORD "COLOR_REP"
COLOR_REP "RGB"

KEYWORD "RGB_I"
NUMBER_OF_FIELDS 4
BEGIN_DATA_FORMAT
RGB_I RGB_R RGB_G RGB_B 
END_DATA_FORMAT

NUMBER_OF_SETS 256
BEGIN_DATA
0.0000 0.0000 0.0000 0.0000 
3.9216e-03 3.9063e-03 3.9063e-03 3.9063e-03 
7.8431e-03 7.8126e-03 7.8126e-03 7.8126e-03 
0.011765 0.011719 0.011719 0.011719 
0.015686 0.015625 0.015625 0.015625 
0.019608 0.019532 0.019532 0.019532 
0.023529 0.023438 0.023438 0.023438 
0.027451 0.027344 0.027344 0.027344 
0.031373 0.031250 0.031250 0.031250 
0.035294 0.035157 0.035157 0.035157 
0.039216 0.039063 0.039063 0.039063 
0.043137 0.042969 0.042969 0.042969 
0.047059 0.046876 0.046876 0.046876 
0.050980 0.050782 0.050782 0.050782 
0.054902 0.054688 0.054688 0.054688 
0.058824 0.058595 0.058595 0.058595 
0.062745 0.062501 0.062501 0.062501 
0.066667 0.066407 0.066407 0.066407 
0.070588 0.070314 0.070314 0.070314 
0.074510 0.074220 0.074220 0.074220 
0.078431 0.078126 0.078126 0.078126 
0.082353 0.082033 0.082033 0.082033 
0.086275 0.085939 0.085939 0.085939 
0.090196 0.089845 0.089845 0.089845 
0.094118 0.093751 0.093751 0.093751 
0.098039 0.097658 0.097658 0.097658 
0.10196 0.10156 0.10156 0.10156 
0.10588 0.10547 0.10547 0.10547 
0.10980 0.10938 0.10938 0.10938 
0.11373 0.11328 0.11328 0.11328 
0.11765 0.11719 0.11719 0.11719 
0.12157 0.12110 0.12110 0.12110 
0.12549 0.12500 0.12500 0.12500 
0.12941 0.12891 0.12891 0.12891 
0.13333 0.13281 0.13281 0.13281 
0.13725 0.13672 0.13672 0.13672 
0.14118 0.14063 0.14063 0.14063 
0.14510 0.14453 0.14453 0.14453 
0.14902 0.14844 0.14844 0.14844 
0.15294 0.15235 0.15235 0.15235 
0.15686 0.15625 0.15625 0.15625 
0.16078 0.16016 0.16016 0.16016 
0.16471 0.16407 0.16407 0.16407 
0.16863 0.16797 0.16797 0.16797 
0.17255 0.17188 0.17188 0.17188 
0.17647 0.17578 0.17578 0.17578 
0.18039 0.17969 0.17969 0.17969 
0.18431 0.18360 0.18360 0.18360 
0.18824 0.18750 0.18750 0.18750 
0.19216 0.19141 0.19141 0.19141 
0.19608 0.19532 0.19532 0.19532 
0.20000 0.19922 0.19922 0.19922 
0.20392 0.20313 0.20313 0.20313 
0.20784 0.20703 0.20703 0.20703 
0.21176 0.21094 0.21094 0.21094 
0.21569 0.21485 0.21485 0.21485 
0.21961 0.21875 0.21875 0.21875 
0.22353 0.22266 0.22266 0.22266 
0.22745 0.22657 0.22657 0.22657 
0.23137 0.23047 0.23047 0.23047 
0.23529 0.23438 0.23438 0.23438 
0.23922 0.23828 0.23828 0.23828 
0.24314 0.24219 0.24219 0.24219 
0.24706 0.24610 0.24610 0.24610 
0.25098 0.25000 0.25000 0.25000 
0.25490 0.25391 0.25391 0.25391 
0.25882 0.25782 0.25782 0.25782 
0.26275 0.26172 0.26172 0.26172 
0.26667 0.26563 0.26563 0.26563 
0.27059 0.26954 0.26954 0.26954 
0.27451 0.27344 0.27344 0.27344 
0.27843 0.27735 0.27735 0.27735 
0.28235 0.28125 0.28125 0.28125 
0.28627 0.28516 0.28516 0.28516 
0.29020 0.28907 0.28907 0.28907 
0.29412 0.29297 0.29297 0.29297 
0.29804 0.29688 0.29688 0.29688 
0.30196 0.30079 0.30079 0.30079 
0.30588 0.30469 0.30469 0.30469 
0.30980 0.30860 0.30860 0.30860 
0.31373 0.31250 0.31250 0.31250 
0.31765 0.31641 0.31641 0.31641 
0.32157 0.32032 0.32032 0.32032 
0.32549 0.32422 0.32422 0.32422 
0.32941 0.32813 0.32813 0.32813 
0.33333 0.33204 0.33204 0.33204 
0.33725 0.33594 0.33594 0.33594 
0.34118 0.33985 0.33985 0.33985 
0.34510 0.34376 0.34376 0.34376 
0.34902 0.34766 0.34766 0.34766 
0.35294 0.35157 0.35157 0.35157 
0.35686 0.35547 0.35547 0.35547 
0.36078 0.35938 0.35938 0.35938 
0.36471 0.36329 0.36329 0.36329 
0.36863 0.36719 0.36719 0.36719 
0.37255 0.37110 0.37110 0.37110 
0.37647 0.37501 0.37501 0.37501 
0.38039 0.37891 0.37891 0.37891 
0.38431 0.38282 0.38282 0.38282 
0.38824 0.38672 0.38672 0.38672 
0.39216 0.39063 0.39063 0.39063 
0.39608 0.39454 0.39454 0.39454 
0.40000 0.39844 0.39844 0.39844 
0.40392 0.40235 0.40235 0.40235 
0.40784 0.40626 0.40626 0.40626 
0.41176 0.41016 0.41016 0.41016 
0.41569 0.41407 0.41407 0.41407 
0.41961 0.41798 0.41798 0.41798 
0.42353 0.42188 0.42188 0.42188 
0.42745 0.42579 0.42579 0.42579 
0.43137 0.42969 0.42969 0.42969 
0.43529 0.43360 0.43360 0.43360 
0.43922 0.43751 0.43751 0.43751 
0.44314 0.44141 0.44141 0.44141 
0.44706 0.44532 0.44532 0.44532 
0.45098 0.44923 0.44923 0.44923 
0.45490 0.45313 0.45313 0.45313 
0.45882 0.45704 0.45704 0.45704 
0.46275 0.46094 0.46094 0.46094 
0.46667 0.46485 0.46485 0.46485 
0.47059 0.46876 0.46876 0.46876 
0.47451 0.47266 0.47266 0.47266 
0.47843 0.47657 0.47657 0.47657 
0.48235 0.48048 0.48048 0.48048 
0.48627 0.48438 0.48438 0.48438 
0.49020 0.48829 0.48829 0.48829 
0.49412 0.49220 0.49220 0.49220 
0.49804 0.49610 0.49610 0.49610 
0.50196 0.50001 0.50001 0.50001 
0.50588 0.50391 0.50391 0.50391 
0.50980 0.50782 0.50782 0.50782 
0.51373 0.51173 0.51173 0.51173 
0.51765 0.51563 0.51563 0.51563 
0.52157 0.51954 0.51954 0.51954 
0.52549 0.52345 0.52345 0.52345 
0.52941 0.52735 0.52735 0.52735 
0.53333 0.53126 0.53126 0.53126 
0.53725 0.53516 0.53516 0.53516 
0.54118 0.53907 0.53907 0.53907 
0.54510 0.54298 0.54298 0.54298 
0.54902 0.54688 0.54688 0.54688 
0.55294 0.55079 0.55079 0.55079 
0.55686 0.55470 0.55470 0.55470 
0.56078 0.55860 0.55860 0.55860 
0.56471 0.56251 0.56251 0.56251 
0.56863 0.56641 0.56641 0.56641 
0.57255 0.57032 0.57032 0.57032 
0.57647 0.57423 0.57423 0.57423 
0.58039 0.57813 0.57813 0.57813 
0.58431 0.58204 0.58204 0.58204 
0.58824 0.58595 0.58595 0.58595 
0.59216 0.58985 0.58985 0.58985 
0.59608 0.59376 0.59376 0.59376 
0.60000 0.59767 0.59767 0.59767 
0.60392 0.60157 0.60157 0.60157 
0.60784 0.60548 0.60548 0.60548 
0.61176 0.60938 0.60938 0.60938 
0.61569 0.61329 0.61329 0.61329 
0.61961 0.61720 0.61720 0.61720 
0.62353 0.62110 0.62110 0.62110 
0.62745 0.62501 0.62501 0.62501 
0.63137 0.62892 0.62892 0.62892 
0.63529 0.63282 0.63282 0.63282 
0.63922 0.63673 0.63673 0.63673 
0.64314 0.64063 0.64063 0.64063 
0.64706 0.64454 0.64454 0.64454 
0.65098 0.64845 0.64845 0.64845 
0.65490 0.65235 0.65235 0.65235 
0.65882 0.65626 0.65626 0.65626 
0.66275 0.66017 0.66017 0.66017 
0.66667 0.66407 0.66407 0.66407 
0.67059 0.66798 0.66798 0.66798 
0.67451 0.67189 0.67189 0.67189 
0.67843 0.67579 0.67579 0.67579 
0.68235 0.67970 0.67970 0.67970 
0.68627 0.68360 0.68360 0.68360 
0.69020 0.68751 0.68751 0.68751 
0.69412 0.69142 0.69142 0.69142 
0.69804 0.69532 0.69532 0.69532 
0.70196 0.69923 0.69923 0.69923 
0.70588 0.70314 0.70314 0.70314 
0.70980 0.70704 0.70704 0.70704 
0.71373 0.71095 0.71095 0.71095 
0.71765 0.71485 0.71485 0.71485 
0.72157 0.71876 0.71876 0.71876 
0.72549 0.72267 0.72267 0.72267 
0.72941 0.72657 0.72657 0.72657 
0.73333 0.73048 0.73048 0.73048 
0.73725 0.73439 0.73439 0.73439 
0.74118 0.73829 0.73829 0.73829 
0.74510 0.74220 0.74220 0.74220 
0.74902 0.74611 0.74611 0.74611 
0.75294 0.75001 0.75001 0.75001 
0.75686 0.75392 0.75392 0.75392 
0.76078 0.75782 0.75782 0.75782 
0.76471 0.76173 0.76173 0.76173 
0.76863 0.76564 0.76564 0.76564 
0.77255 0.76954 0.76954 0.76954 
0.77647 0.77345 0.77345 0.77345 
0.78039 0.77736 0.77736 0.77736 
0.78431 0.78126 0.78126 0.78126 
0.78824 0.78517 0.78517 0.78517 
0.79216 0.78907 0.78907 0.78907 
0.79608 0.79298 0.79298 0.79298 
0.80000 0.79689 0.79689 0.79689 
0.80392 0.80079 0.80079 0.80079 
0.80784 0.80470 0.80470 0.80470 
0.81176 0.80861 0.80861 0.80861 
0.81569 0.81251 0.81251 0.81251 
0.81961 0.81642 0.81642 0.81642 
0.82353 0.82033 0.82033 0.82033 
0.82745 0.82423 0.82423 0.82423 
0.83137 0.82814 0.82814 0.82814 
0.83529 0.83204 0.83204 0.83204 
0.83922 0.83595 0.83595 0.83595 
0.84314 0.83986 0.83986 0.83986 
0.84706 0.84376 0.84376 0.84376 
0.85098 0.84767 0.84767 0.84767 
0.85490 0.85158 0.85158 0.85158 
0.85882 0.85548 0.85548 0.85548 
0.86275 0.85939 0.85939 0.85939 
0.86667 0.86329 0.86329 0.86329 
0.87059 0.86720 0.86720 0.86720 
0.87451 0.87111 0.87111 0.87111 
0.87843 0.87501 0.87501 0.87501 
0.88235 0.87892 0.87892 0.87892 
0.88627 0.88283 0.88283 0.88283 
0.89020 0.88673 0.88673 0.88673 
0.89412 0.89064 0.89064 0.89064 
0.89804 0.89454 0.89454 0.89454 
0.90196 0.89845 0.89845 0.89845 
0.90588 0.90236 0.90236 0.90236 
0.90980 0.90626 0.90626 0.90626 
0.91373 0.91017 0.91017 0.91017 
0.91765 0.91408 0.91408 0.91408 
0.92157 0.91798 0.91798 0.91798 
0.92549 0.92189 0.92189 0.92189 
0.92941 0.92580 0.92580 0.92580 
0.93333 0.92970 0.92970 0.92970 
0.93725 0.93361 0.93361 0.93361 
0.94118 0.93751 0.93751 0.93751 
0.94510 0.94142 0.94142 0.94142 
0.94902 0.94533 0.94533 0.94533 
0.95294 0.94923 0.94923 0.94923 
0.95686 0.95314 0.95314 0.95314 
0.96078 0.95705 0.95705 0.95705 
0.96471 0.96095 0.96095 0.96095 
0.96863 0.96486 0.96486 0.96486 
0.97255 0.96876 0.96876 0.96876 
0.97647 0.97267 0.97267 0.97267 
0.98039 0.97658 0.97658 0.97658 
0.98431 0.98048 0.98048 0.98048 
0.98824 0.98439 0.98439 0.98439 
0.99216 0.98830 0.98830 0.98830 
0.99608 0.99220 0.99220 0.99220 
1.0000 0.99611 0.99611 0.99611 
END_DATA
