CTI3   

DESCRIPTOR "Argyll Calibration Target chart information 3"
ORIGINATOR "Argyll dispread"
CREATED "Tue Jan 10 14:56:29 2012"
KEYWORD "DEVICE_CLASS"
DEVICE_CLASS "DISPLAY"
KEYWORD "COLOR_REP"
COLOR_REP "RGB_XYZ"
KEYWORD "TARGET_INSTRUMENT"
TARGET_INSTRUMENT "Hughski ColorHug"
KEYWORD "INSTRUMENT_TYPE_SPECTRAL"
INSTRUMENT_TYPE_SPECTRAL "NO"
KEYWORD "LUMINANCE_XYZ_CDM2"
LUMINANCE_XYZ_CDM2 "247.229248 218.469086 265.655060"
KEYWORD "NORMALIZED_TO_Y_100"
NORMALIZED_TO_Y_100 "YES"

NUMBER_OF_FIELDS 7
BEGIN_DATA_FORMAT
SAMPLE_ID RGB_R RGB_G RGB_B XYZ_X XYZ_Y XYZ_Z 
END_DATA_FORMAT

NUMBER_OF_SETS 836
BEGIN_DATA
1 100.00 100.00 100.00 113.16 100.00 121.60 
2 100.00 100.00 100.00 113.22 99.918 120.54 
3 100.00 100.00 100.00 113.28 100.26 119.77 
4 100.00 100.00 100.00 113.05 100.31 118.69 
5 33.330 32.622 30.968 9.6191 8.5585 9.5981 
6 100.00 0.0000 100.00 90.004 35.074 110.69 
7 100.00 100.00 0.0000 85.603 92.836 6.3168 
8 0.0000 100.00 100.00 51.503 75.374 120.24 
9 0.0000 100.00 0.0000 23.686 66.585 8.1722 
10 0.0000 0.0000 100.00 28.378 9.1138 112.87 
11 100.00 0.0000 0.0000 61.396 26.149 2.9997e+04 
12 0.0000 0.0000 0.0000 0.29103 0.29013 0.32255 
13 0.0000 52.455 100.00 34.235 24.964 116.09 
14 100.00 0.0000 50.300 67.737 27.776 24.713 
15 100.00 54.739 100.00 96.253 52.205 115.82 
16 100.00 52.128 0.0000 67.462 41.555 1.1925 
17 0.0000 0.0000 46.181 5.2956 1.8614 20.425 
18 0.0000 51.141 0.0000 5.4073 14.652 2.3636 
19 0.0000 100.00 51.348 30.124 67.931 34.184 
20 100.00 100.00 52.037 92.274 94.553 33.712 
21 49.216 0.0000 0.0000 12.245 5.3361 0.042807 
22 56.159 100.00 0.0000 40.322 73.681 8.0004 
23 49.226 100.00 100.00 64.461 79.962 122.80 
24 44.487 0.0000 100.00 37.992 12.992 113.72 
25 100.00 44.498 52.029 72.457 39.012 28.687 
26 48.926 48.544 100.00 45.330 28.124 113.79 
27 51.368 100.00 47.250 42.658 74.131 29.815 
28 49.893 0.0000 49.033 18.392 7.1019 23.662 
29 53.109 51.372 0.0000 19.665 21.203 1.8591 
30 0.0000 58.587 53.943 14.460 22.454 31.738 
31 100.00 28.065 100.00 91.063 38.804 113.22 
32 0.0000 0.0000 72.874 14.315 4.4466 56.753 
33 0.0000 26.758 100.00 29.783 12.628 114.37 
34 0.0000 25.426 0.0000 1.5781 3.4068 0.97581 
35 72.508 0.0000 100.00 57.102 21.061 112.51 
36 100.00 27.395 0.0000 63.496 30.081 2.9997e+04 
37 74.470 100.00 100.00 82.643 87.952 119.61 
38 100.00 0.0000 25.728 63.797 26.799 4.6082 
39 73.862 0.0000 0.0000 30.543 13.014 2.9998e+04 
40 100.00 100.00 25.402 87.037 93.033 12.523 
41 0.0000 75.751 100.00 40.742 44.854 116.23 
42 0.0000 75.172 0.0000 12.556 35.178 4.7548 
43 0.0000 100.00 25.864 25.141 67.039 14.222 
44 100.00 0.0000 74.801 76.544 30.669 59.799 
45 0.0000 100.00 75.421 39.165 71.195 70.653 
46 24.577 0.0000 0.0000 2.8638 1.4060 0.27917 
47 26.321 100.00 0.0000 26.895 67.066 9.4870 
48 100.00 75.835 0.0000 74.202 61.106 4.7885 
49 100.00 100.00 77.061 101.20 95.998 73.481 
50 71.263 100.00 0.0000 51.711 77.267 8.6936 
51 0.0000 0.0000 15.614 0.63965 0.21189 1.9518 
52 0.0000 30.049 70.936 15.121 8.9705 53.913 
53 100.00 77.691 100.00 103.19 72.190 116.38 
54 24.486 100.00 100.00 54.324 75.846 120.54 
55 100.00 62.784 31.909 72.640 50.418 10.886 
56 29.552 0.0000 100.00 31.897 10.426 111.99 
57 32.980 70.921 100.00 44.247 42.489 115.34 
58 0.0000 27.681 40.241 5.4205 5.2389 15.648 
59 67.901 71.021 100.00 64.015 50.602 115.63 
60 28.154 100.00 67.829 39.407 71.848 56.490 
61 71.637 100.00 70.001 64.806 82.056 61.076 
62 58.822 58.763 53.586 32.585 30.240 31.977 
63 33.466 30.480 0.0000 7.0769 7.1187 1.0415 
64 100.00 73.795 71.277 86.923 63.449 59.244 
65 68.394 29.692 0.0000 27.038 15.379 0.65740 
66 70.399 0.0000 29.039 29.155 12.029 7.7476 
67 28.078 0.0000 26.956 5.3630 2.1982 6.4830 
68 28.532 72.339 0.0000 15.446 33.417 4.7156 
69 100.00 30.941 26.496 65.439 31.820 5.7108 
70 34.597 0.0000 73.611 20.293 7.0381 57.945 
71 71.573 0.0000 72.408 42.091 16.484 54.867 
72 0.0000 71.029 29.412 13.030 31.501 11.796 
73 68.386 75.008 0.0000 38.147 46.107 3.9335 
74 68.088 27.309 100.00 54.698 23.683 112.50 
75 100.00 26.457 73.749 77.252 34.340 58.033 
76 74.344 100.00 27.392 56.051 79.806 15.164 
77 27.558 100.00 28.197 28.816 68.125 15.639 
78 31.196 27.465 100.00 34.330 14.872 114.38 
79 0.0000 75.521 72.824 26.852 39.793 61.960 
80 0.0000 50.930 25.553 6.7662 15.387 7.7152 
81 32.060 33.584 64.033 17.613 11.347 43.249 
82 81.666 55.380 0.0000 44.528 33.611 1.9416 
83 68.257 32.751 58.286 36.060 19.098 35.211 
84 0.0000 55.248 81.585 24.481 23.160 75.038 
85 73.781 52.099 100.00 63.847 37.476 113.58 
86 100.00 50.537 82.952 86.121 47.106 76.252 
87 23.550 0.0000 50.439 8.8383 3.2794 24.415 
88 31.335 62.746 31.114 15.308 26.075 11.853 
89 100.00 18.310 49.418 68.497 29.807 23.364 
90 26.498 48.404 0.0000 7.9561 14.665 1.8823 
91 47.910 100.00 85.744 55.523 77.401 90.283 
92 71.829 47.313 31.811 34.906 25.332 10.850 
93 31.304 64.132 69.316 26.155 30.849 54.228 
94 80.403 0.0000 54.321 43.717 17.560 29.761 
95 18.455 50.036 100.00 35.255 24.200 115.80 
96 50.653 100.00 16.345 37.339 70.879 11.319 
97 80.121 100.00 52.261 66.990 82.610 36.177 
98 0.0000 22.540 19.289 1.9842 2.9602 3.9119 
99 100.00 75.273 46.886 79.767 62.579 25.395 
100 0.0000 78.618 56.625 21.796 40.859 37.003 
101 51.137 80.627 100.00 56.156 55.564 116.88 
102 48.446 0.0000 17.864 12.421 5.3655 2.1894 
103 100.00 50.023 21.211 67.868 41.109 4.1286 
104 50.115 20.118 0.0000 13.528 7.6051 0.10250 
105 58.099 72.426 33.158 31.819 40.601 14.425 
106 19.364 100.00 50.197 31.556 68.989 33.288 
107 50.683 19.177 100.00 41.886 16.464 113.13 
108 53.370 0.0000 81.576 32.528 11.669 73.237 
109 47.768 76.245 0.0000 24.338 40.755 5.2892 
110 0.0000 18.927 55.503 8.3448 4.1315 31.140 
111 0.0000 13.277 0.0000 0.46773 1.0302 0.39879 
112 72.862 72.473 75.625 56.226 49.090 66.349 
113 100.00 13.904 0.0000 62.191 27.133 2.9997e+04 
114 86.349 0.0000 100.00 71.899 27.257 112.67 
115 100.00 41.941 100.00 93.461 45.007 112.38 
116 100.00 81.785 16.464 77.378 68.175 6.5845 
117 0.0000 44.063 52.596 10.578 13.136 27.567 
118 0.0000 0.0000 58.917 8.7289 3.0057 33.935 
119 59.250 24.551 29.789 21.429 11.680 7.7437 
120 82.730 82.874 100.00 82.686 69.402 117.45 
121 80.039 0.0000 12.618 35.941 15.449 0.60870 
122 60.957 47.729 77.817 40.769 26.637 67.747 
123 100.00 0.0000 38.618 64.616 26.890 13.738 
124 0.0000 40.090 100.00 31.464 17.736 114.86 
125 0.0000 15.283 82.322 19.167 7.0916 75.147 
126 17.592 81.726 100.00 44.980 51.383 119.80 
127 100.00 14.130 100.00 89.930 35.748 112.50 
128 15.261 100.00 82.059 43.134 71.137 84.228 
129 47.770 79.418 60.389 35.206 46.782 43.071 
130 18.768 16.429 0.0000 2.2872 2.0972 0.52444 
131 55.634 100.00 65.763 51.065 76.043 52.927 
132 100.00 100.00 38.541 88.957 93.382 20.745 
133 17.421 0.0000 83.497 20.577 6.7600 76.181 
134 17.237 16.758 100.00 29.949 10.825 112.66 
135 0.0000 15.067 30.039 2.5624 1.6952 8.4009 
136 0.0000 0.0000 86.505 20.910 6.7003 83.294 
137 75.736 72.799 50.020 49.433 48.123 28.646 
138 100.00 83.323 85.529 97.192 76.463 86.941 
139 100.00 100.00 64.894 95.612 94.694 53.327 
140 81.980 84.914 0.0000 54.275 61.473 6.0773 
141 0.0000 63.757 15.490 9.1731 23.997 5.9919 
142 49.514 66.135 100.00 50.381 40.161 117.78 
143 100.00 0.0000 61.862 71.461 29.210 38.545 
144 24.308 45.410 49.831 13.093 14.620 26.217 
145 15.963 0.0000 17.047 1.9365 0.75409 3.0359 
146 87.497 100.00 100.00 96.105 93.520 119.29 
147 52.099 25.003 75.752 30.365 14.234 61.130 
148 14.909 81.162 0.0000 15.632 41.680 5.2586 
149 0.0000 34.792 14.626 2.9447 6.8343 3.0770 
150 48.390 45.075 22.552 16.889 16.823 5.5291 
151 83.545 65.965 100.00 77.327 52.262 114.91 
152 16.226 62.345 0.0000 9.4394 23.471 3.5093 
153 63.222 0.0000 14.914 21.221 9.1391 1.6048 
154 80.449 13.446 0.0000 36.329 16.168 2.9997e+04 
155 83.917 41.562 0.0000 43.400 26.709 0.76384 
156 100.00 60.448 46.300 74.345 48.943 24.078 
157 15.584 0.0000 34.795 3.8966 1.6137 10.947 
158 17.144 65.121 100.00 38.578 34.328 117.40 
159 83.602 55.334 62.667 56.917 37.721 42.777 
160 0.0000 82.190 14.220 15.791 42.302 8.1544 
161 25.132 74.856 50.616 21.468 37.496 29.728 
162 0.0000 13.769 100.00 28.439 9.8799 112.41 
163 87.181 0.0000 0.0000 44.760 19.054 2.9997e+04 
164 0.0000 100.00 39.190 27.216 67.448 22.380 
165 78.047 65.914 19.865 44.173 40.807 5.9657 
166 100.00 63.961 15.865 70.782 50.549 4.5632 
167 100.00 45.955 36.032 68.621 39.162 12.835 
168 15.926 100.00 16.890 25.312 66.794 11.041 
169 41.459 100.00 0.0000 32.235 69.869 9.0241 
170 48.707 37.288 48.139 20.352 14.650 23.751 
171 83.381 100.00 13.285 63.685 82.282 10.625 
172 78.129 25.303 75.621 50.984 22.537 62.245 
173 12.396 0.0000 0.0000 1.0259 0.50744 0.60593 
174 37.607 48.336 83.346 31.067 22.454 78.628 
175 35.588 15.356 0.0000 6.5229 3.7955 0.37485 
176 61.245 100.00 100.00 71.638 83.240 121.71 
177 100.00 67.290 87.195 92.573 59.815 90.012 
178 0.0000 0.0000 30.615 2.3472 0.86824 8.9327 
179 35.187 81.789 83.323 40.602 50.337 83.889 
180 39.525 80.194 22.879 23.292 43.688 10.330 
181 50.634 34.593 0.0000 15.303 12.007 0.99893 
182 14.175 100.00 63.146 34.621 68.959 49.762 
183 83.493 17.728 34.574 43.399 19.310 10.656 
184 23.463 22.014 79.943 20.889 9.0138 69.840 
185 18.066 31.847 0.0000 3.6164 6.1485 1.1632 
186 87.201 100.00 81.361 86.482 89.675 82.173 
187 0.0000 100.00 87.950 45.407 71.969 97.041 
188 34.476 17.888 46.220 11.529 5.7907 20.774 
189 18.277 0.0000 67.390 13.341 4.2944 47.688 
190 100.00 87.972 0.0000 79.609 76.045 4.7850 
191 82.925 34.850 100.00 69.833 32.663 111.48 
192 0.0000 88.016 100.00 46.129 59.251 118.75 
193 36.104 85.655 100.00 51.361 59.082 117.88 
194 60.981 0.0000 0.0000 19.479 8.2459 0.26308 
195 51.466 61.826 78.106 37.939 33.857 68.372 
196 78.427 31.983 22.175 37.277 20.485 4.5051 
197 66.017 44.321 0.0000 27.253 20.899 1.1787 
198 83.941 0.0000 84.177 59.535 22.965 79.074 
199 20.158 46.612 23.269 7.4918 13.485 6.5146 
200 0.0000 100.00 62.618 33.731 68.680 49.543 
201 33.832 0.0000 13.933 5.8053 2.6991 1.7095 
202 100.00 17.286 16.322 62.832 27.768 1.4651 
203 0.0000 42.204 83.926 23.047 15.986 79.022 
204 0.0000 87.774 0.0000 17.786 49.090 7.0422 
205 64.988 0.0000 59.017 31.477 12.498 35.046 
206 14.677 0.0000 100.00 29.152 9.4180 112.55 
207 88.934 82.673 35.021 64.797 63.889 15.865 
208 0.0000 63.778 100.00 36.778 33.804 114.75 
209 83.429 17.674 100.00 68.424 27.590 111.47 
210 30.899 100.00 85.668 48.598 74.612 89.933 
211 83.680 0.0000 41.016 44.230 18.248 16.076 
212 100.00 63.515 0.0000 69.793 49.705 3.0524 
213 85.074 69.987 0.0000 52.133 47.219 3.9681 
214 20.801 45.524 69.018 18.818 16.427 52.086 
215 21.382 82.482 73.017 31.713 48.123 63.791 
216 100.00 15.128 64.249 72.299 30.131 42.785 
217 36.522 0.0000 58.427 15.015 5.2950 34.700 
218 22.466 81.296 33.007 19.798 42.905 16.387 
219 62.531 87.152 0.0000 38.501 57.398 6.4890 
220 84.120 85.397 67.886 69.630 67.406 53.515 
221 18.870 27.336 45.389 8.0352 6.2918 20.027 
222 66.439 100.00 14.444 48.193 76.379 9.8758 
223 41.636 22.147 19.003 10.456 6.3567 3.6127 
224 61.271 100.00 81.940 61.803 80.413 81.283 
225 86.013 100.00 0.0000 66.898 84.607 8.0963 
226 37.570 0.0000 0.0000 6.7901 2.9826 0.25944 
227 100.00 16.132 84.102 81.087 33.192 78.323 
228 0.0000 100.00 13.619 23.976 66.165 10.565 
229 38.905 100.00 56.471 39.279 71.900 40.557 
230 100.00 15.382 34.563 64.579 28.225 10.205 
231 36.656 14.908 100.00 35.190 12.776 113.27 
232 0.0000 62.593 66.608 20.034 27.043 49.391 
233 66.347 12.528 100.00 51.806 19.616 113.26 
234 100.00 43.375 69.233 77.735 40.755 51.931 
235 100.00 56.360 61.236 77.461 47.272 40.967 
236 0.0000 86.194 44.955 21.855 48.600 26.347 
237 64.527 87.262 100.00 68.020 67.280 118.14 
238 34.411 0.0000 42.471 10.013 3.8607 17.261 
239 80.230 59.707 85.120 63.842 42.764 81.327 
240 20.625 19.056 14.791 3.2381 2.8546 2.6432 
241 15.341 34.221 100.00 31.475 15.872 113.22 
242 36.777 0.0000 87.905 28.283 9.9764 86.565 
243 34.598 56.247 100.00 40.704 29.976 115.75 
244 20.860 67.629 17.418 12.475 28.752 6.3946 
245 44.958 60.843 18.054 18.721 25.837 6.4182 
246 37.421 60.193 0.0000 14.501 23.833 3.4514 
247 84.011 33.849 42.612 47.520 24.867 18.118 
248 17.241 60.339 37.743 12.267 22.931 15.936 
249 50.650 17.261 53.278 20.722 9.1362 28.609 
250 45.505 48.926 65.152 26.230 21.785 45.875 
251 44.567 84.081 39.649 29.911 50.325 21.628 
252 100.00 86.339 72.054 92.097 77.442 62.592 
253 68.140 61.135 0.0000 32.975 32.251 3.2497 
254 17.930 66.986 81.403 29.503 32.822 77.695 
255 39.242 60.215 48.926 21.307 26.353 26.499 
256 20.099 18.770 62.967 12.608 5.7854 40.897 
257 34.553 100.00 14.582 29.835 67.935 10.621 
258 87.345 0.0000 66.694 55.992 22.702 44.741 
259 0.0000 43.714 39.842 7.6093 11.887 16.230 
260 100.00 37.705 13.955 64.923 34.274 1.0516 
261 31.265 86.993 0.0000 22.040 50.619 6.4402 
262 51.402 82.661 81.338 47.162 54.793 78.921 
263 100.00 100.00 12.984 84.906 91.708 9.8630 
264 0.0000 37.859 0.0000 2.9476 7.9688 1.3034 
265 62.092 58.215 100.00 55.525 37.276 116.34 
266 86.186 100.00 64.100 77.098 86.476 51.770 
267 100.00 35.251 85.898 84.493 39.074 82.979 
268 63.182 89.992 41.974 43.939 61.758 23.755 
269 13.504 100.00 0.0000 24.495 65.842 9.0131 
270 100.00 0.0000 13.228 62.092 26.280 0.29131 
271 63.881 40.826 100.00 53.342 27.492 113.23 
272 69.387 84.838 20.792 43.408 57.413 8.8633 
273 0.0000 70.279 45.136 15.531 31.720 22.734 
274 79.094 64.754 40.908 48.105 41.373 18.079 
275 62.385 54.099 17.396 27.139 25.756 4.3527 
276 64.408 14.621 0.0000 22.094 10.296 0.20524 
277 70.028 15.606 44.651 31.702 14.030 19.265 
278 0.0000 63.544 0.0000 8.6881 23.845 3.9751 
279 83.475 47.274 20.502 45.191 29.521 5.3487 
280 55.866 0.0000 32.671 18.480 7.6940 9.5638 
281 58.007 0.0000 100.00 45.728 16.171 113.14 
282 100.00 0.0000 87.698 83.080 32.867 84.736 
283 0.0000 13.792 67.215 12.203 4.6607 47.133 
284 84.123 17.001 58.549 49.760 21.479 33.447 
285 59.579 32.873 15.966 21.241 14.088 2.5023 
286 10.410 32.998 28.659 4.5707 6.7560 8.3132 
287 17.231 40.031 85.650 24.944 16.230 82.369 
288 37.568 41.561 10.108 10.653 12.756 2.5160 
289 0.0000 69.015 85.092 30.464 35.412 83.665 
290 14.442 100.00 36.187 27.582 67.488 21.190 
291 100.00 40.549 0.0000 64.211 34.736 0.90940 
292 82.143 45.435 78.429 59.237 33.073 68.725 
293 52.674 0.0000 67.300 25.741 9.6914 47.666 
294 0.0000 87.868 66.793 29.250 52.685 53.298 
295 86.530 100.00 40.524 70.870 84.686 24.336 
296 71.777 85.586 67.232 56.883 61.800 54.275 
297 43.216 100.00 31.671 35.394 71.128 17.024 
298 39.245 32.908 85.845 30.233 15.692 82.804 
299 0.0000 45.662 67.543 16.262 15.430 49.310 
300 12.161 100.00 100.00 52.546 75.003 122.47 
301 67.049 0.0000 85.516 44.140 16.493 81.390 
302 100.00 89.041 100.00 107.27 84.910 119.59 
303 20.246 60.698 56.526 17.639 24.967 35.145 
304 52.177 55.457 40.416 24.229 24.692 18.157 
305 72.617 87.018 83.932 65.769 66.288 84.004 
306 40.512 16.723 66.475 19.979 8.3507 46.239 
307 68.507 49.232 50.605 36.778 26.884 26.055 
308 65.622 100.00 54.525 54.112 78.047 37.440 
309 54.115 37.240 66.394 29.304 17.767 46.046 
310 100.00 76.138 31.267 76.532 62.854 12.103 
311 54.728 65.623 0.0000 24.671 32.169 3.1943 
312 63.126 12.526 64.370 31.833 13.117 42.300 
313 72.827 18.080 23.704 30.900 14.344 4.9485 
314 23.268 15.278 34.947 5.7381 3.3599 11.214 
315 87.648 68.954 59.645 63.877 50.557 39.891 
316 0.0000 85.595 85.198 37.218 53.236 88.285 
317 35.798 84.371 69.210 35.138 51.139 58.066 
318 36.062 47.494 35.919 14.017 16.420 13.991 
319 86.083 36.277 59.152 54.325 27.961 36.432 
320 58.210 100.00 30.361 43.630 73.443 17.412 
321 46.745 14.614 32.317 13.802 6.4924 10.049 
322 81.573 73.869 86.954 70.986 56.040 88.580 
323 85.991 49.387 48.206 53.701 34.132 23.542 
324 28.062 87.906 19.654 22.472 51.700 10.111 
325 68.992 17.993 85.124 46.330 19.159 78.849 
326 100.00 66.147 100.00 98.991 61.616 114.11 
327 33.358 64.806 84.517 34.068 33.900 81.697 
328 41.351 17.736 80.522 26.691 10.865 70.956 
329 100.00 100.00 88.719 106.69 98.992 96.491 
330 66.336 0.0000 44.320 27.927 11.667 18.626 
331 64.850 67.090 12.293 32.356 36.701 4.5625 
332 15.262 31.268 63.277 13.412 8.8879 42.197 
333 15.008 43.663 37.300 8.1301 11.988 14.974 
334 0.0000 57.895 38.078 10.656 20.709 16.458 
335 66.599 58.458 67.871 43.081 33.828 50.959 
336 59.191 18.651 15.215 19.428 9.5989 2.2139 
337 66.781 31.140 84.629 45.490 21.511 79.803 
338 88.033 85.158 52.140 68.763 67.390 32.267 
339 36.882 100.00 100.00 58.405 77.483 120.45 
340 26.102 33.094 17.006 5.9411 7.6219 3.1501 
341 56.309 36.861 35.862 22.240 15.767 12.302 
342 45.839 65.587 67.033 31.610 34.200 49.574 
343 83.709 81.172 16.406 55.694 58.567 7.5417 
344 0.0000 48.132 13.005 5.2680 13.288 3.7497 
345 87.176 50.021 100.00 77.365 42.251 114.27 
346 51.219 84.244 13.730 29.960 50.830 8.1383 
347 60.606 71.415 48.406 36.156 41.008 27.107 
348 0.0000 11.359 12.718 0.81635 0.95193 2.0281 
349 86.429 49.705 33.145 50.771 32.970 11.597 
350 34.056 40.958 100.00 37.501 20.669 115.29 
351 100.00 30.557 59.628 72.250 33.903 36.157 
352 88.497 26.902 13.449 47.810 23.319 1.4110 
353 14.167 51.980 88.218 28.238 22.699 89.442 
354 13.784 12.983 49.370 7.2156 3.2078 24.210 
355 15.018 88.441 48.062 24.674 52.631 29.468 
356 87.790 25.769 89.215 68.606 29.472 88.896 
357 0.0000 33.206 55.865 10.024 8.8152 31.338 
358 74.324 76.029 35.536 46.513 49.791 16.114 
359 65.863 57.223 42.324 34.353 30.535 19.391 
360 30.893 54.646 13.136 11.162 19.415 3.9535 
361 0.0000 34.360 28.321 4.1470 7.0842 8.1967 
362 15.443 77.087 85.116 34.283 43.827 85.639 
363 63.381 68.947 68.521 44.001 41.598 53.855 
364 69.733 27.566 42.917 32.174 16.619 18.187 
365 32.754 100.00 42.760 33.096 68.900 27.014 
366 47.096 29.481 34.829 15.653 10.358 11.800 
367 8.5451 71.948 62.695 21.818 34.849 44.967 
368 0.0000 86.048 29.300 18.966 47.950 14.091 
369 53.697 51.572 85.367 40.593 28.022 82.333 
370 17.608 56.690 12.515 8.7682 19.463 4.3699 
371 90.638 14.414 49.227 54.897 23.586 23.001 
372 63.248 63.640 89.550 52.274 40.425 92.557 
373 100.00 85.976 58.455 87.112 76.413 39.967 
374 9.8311 28.027 7.5567 2.2005 4.4978 1.3097 
375 89.831 64.313 69.506 68.343 48.787 53.843 
376 31.754 12.995 25.543 6.4879 3.5587 6.0140 
377 75.914 45.966 64.957 47.057 29.221 45.271 
378 7.5735 50.695 58.941 14.369 17.606 37.384 
379 100.00 69.835 58.912 80.533 57.908 39.563 
380 32.211 34.376 48.339 13.056 10.550 23.701 
381 13.901 12.159 73.555 15.595 5.5811 58.586 
382 87.071 9.0280 77.653 60.378 24.030 65.104 
383 23.272 85.409 84.290 38.760 53.284 84.675 
384 93.289 39.480 26.145 55.916 31.082 5.7224 
385 65.769 59.630 30.967 32.960 31.559 10.804 
386 100.00 32.265 41.803 67.886 33.254 15.936 
387 86.568 85.281 86.961 81.166 71.899 88.789 
388 52.577 86.830 30.016 33.536 55.470 14.050 
389 47.921 40.199 76.902 30.695 19.018 64.265 
390 22.360 86.619 61.580 29.126 52.301 44.763 
391 52.232 33.601 88.787 38.151 19.175 89.696 
392 0.0000 28.523 86.267 22.510 10.786 84.411 
393 43.497 67.879 39.551 23.199 32.724 19.064 
394 39.877 45.261 0.0000 12.089 14.662 2.2140 
395 86.940 12.430 24.699 45.675 19.861 4.9624 
396 28.363 55.339 90.398 33.162 26.528 94.488 
397 39.018 70.534 57.879 26.760 36.099 37.264 
398 12.833 28.519 78.828 18.978 9.7866 67.538 
399 68.350 31.815 69.975 40.056 20.281 51.889 
400 56.520 26.226 41.626 21.959 11.905 16.848 
401 12.938 46.218 0.0000 5.1865 12.554 2.0050 
402 8.6938 60.179 26.117 9.5352 22.191 8.6456 
403 51.995 89.429 96.608 58.663 65.738 112.01 
404 46.905 47.746 48.909 21.822 19.778 25.371 
405 14.352 81.814 19.479 16.934 42.783 9.3034 
406 71.482 38.117 12.273 30.686 19.632 2.3926 
407 86.616 60.785 10.012 51.101 40.036 3.4891 
408 71.811 88.979 52.186 52.916 63.990 34.489 
409 43.213 100.00 72.083 46.874 73.421 64.601 
410 73.920 23.444 8.2853 31.501 15.753 0.70363 
411 40.629 85.534 53.423 32.072 52.030 34.491 
412 38.955 52.128 22.885 14.254 19.210 6.7956 
413 46.480 12.229 8.6707 11.184 5.5894 0.63849 
414 40.855 33.301 22.309 11.668 9.7233 5.7788 
415 76.365 66.787 61.060 51.511 43.689 40.782 
416 7.5076 12.025 20.590 1.6107 1.2247 3.9150 
417 85.930 27.031 0.0000 43.690 21.882 2.9998e+04 
418 100.00 87.757 44.060 83.374 76.706 25.110 
419 41.543 25.624 54.896 17.248 9.6059 30.074 
420 59.533 76.669 91.789 55.221 52.090 99.351 
421 58.226 12.079 28.862 19.680 8.8046 7.5820 
422 50.514 8.8602 88.281 34.726 12.750 87.563 
423 41.983 0.0000 31.301 10.800 4.4333 9.0860 
424 28.024 36.455 77.877 22.760 14.132 66.997 
425 12.718 41.027 11.129 4.4431 9.9302 2.6049 
426 26.194 75.573 88.088 37.607 43.284 91.934 
427 28.936 71.474 37.671 18.566 33.592 17.761 
428 90.497 74.770 26.512 61.920 55.109 10.088 
429 17.514 75.984 41.507 18.392 37.682 21.402 
430 16.621 64.069 68.891 22.479 29.339 52.515 
431 12.420 21.661 36.669 4.7753 3.7555 12.805 
432 52.915 46.814 10.465 19.076 18.640 2.3940 
433 56.979 91.194 52.490 42.833 63.352 33.996 
434 25.140 52.299 42.419 12.928 18.418 19.046 
435 25.587 6.8296 13.004 3.3872 1.6440 1.6879 
436 55.018 14.818 41.328 19.784 8.9340 16.273 
437 93.397 56.942 87.959 79.876 47.452 89.838 
438 28.374 12.057 85.683 24.568 8.6660 83.092 
439 78.265 6.7088 92.468 58.097 22.049 95.812 
440 39.694 71.314 6.3658 19.021 33.937 4.8402 
441 73.259 45.059 87.294 55.129 30.612 86.878 
442 26.381 57.692 76.454 25.854 25.447 65.734 
443 66.587 33.629 31.299 28.403 17.098 9.2665 
444 88.523 74.434 46.718 63.323 55.207 24.597 
445 76.836 59.920 49.912 46.705 37.135 26.351 
446 33.152 90.418 31.148 26.239 56.064 15.053 
447 55.924 53.388 68.505 34.367 27.653 50.758 
448 77.248 91.798 41.448 56.794 70.336 23.404 
449 26.737 89.225 45.445 26.687 54.557 26.850 
450 87.642 100.00 25.942 69.707 85.521 14.170 
451 68.631 100.00 40.532 53.020 77.784 25.168 
452 14.485 50.449 49.078 12.194 16.917 25.567 
453 10.654 10.664 89.702 23.489 7.8033 90.945 
454 31.962 49.108 62.920 20.172 18.883 43.235 
455 8.6779 22.468 68.278 13.350 6.4135 49.172 
456 74.727 90.586 6.3447 49.964 65.429 6.7225 
457 0.0000 12.136 44.106 5.1218 2.2559 18.575 
458 43.350 78.123 73.610 37.460 46.073 62.844 
459 10.925 11.786 9.5801 1.1642 1.1606 1.2902 
460 15.591 37.386 50.832 10.103 10.410 25.981 
461 10.685 68.959 9.3113 11.104 29.170 4.7530 
462 92.017 72.247 12.692 61.541 53.100 4.7633 
463 89.839 77.431 73.400 74.540 61.866 61.938 
464 47.450 74.511 18.753 24.432 39.339 7.7616 
465 50.097 90.816 69.461 44.529 62.592 58.297 
466 82.755 34.052 82.994 59.904 28.833 77.163 
467 46.786 72.919 85.794 43.360 43.503 87.440 
468 9.3304 90.457 73.518 33.777 57.085 65.766 
469 88.590 61.902 22.128 54.955 42.000 7.6462 
470 100.00 61.262 74.222 84.005 52.164 62.654 
471 86.777 8.8992 8.4672 44.433 19.101 0.15389 
472 39.582 85.966 11.798 25.189 50.333 8.2219 
473 85.958 0.0000 24.986 44.454 18.782 4.7326 
474 80.299 22.552 47.163 42.850 19.956 20.808 
475 7.2180 45.128 76.547 19.948 16.777 63.750 
476 55.989 48.521 58.428 29.820 23.285 36.078 
477 50.728 10.774 73.284 27.355 10.766 56.612 
478 71.269 10.344 11.008 28.205 12.270 1.1913 
479 91.768 45.194 10.385 53.369 32.491 2.0629 
480 7.8976 42.553 25.130 5.5312 10.630 7.4783 
481 54.269 55.846 25.175 22.755 24.981 7.8248 
482 41.937 24.646 5.4249 9.9149 6.9979 0.58594 
483 89.502 33.423 70.991 62.420 29.901 54.642 
484 75.301 54.745 14.159 37.875 30.570 4.4368 
485 76.653 6.2202 65.750 44.173 17.461 45.112 
486 58.072 77.769 7.4688 31.191 44.928 5.3786 
487 27.429 73.801 76.267 31.278 39.507 67.349 
488 39.961 56.279 74.128 29.136 26.251 60.802 
489 23.430 28.561 70.622 17.150 9.5931 52.616 
490 91.285 49.258 68.377 66.467 38.701 50.305 
491 95.591 89.122 11.382 72.922 74.476 6.4114 
492 28.451 92.151 76.841 39.185 61.353 70.461 
493 26.242 26.080 53.808 11.600 7.3915 28.596 
494 15.957 92.746 24.983 22.262 56.838 12.586 
495 13.563 9.1545 61.533 10.725 3.8152 38.574 
496 13.216 24.593 54.939 9.4716 5.9159 30.968 
497 91.885 89.769 79.537 85.797 78.294 77.535 
498 100.00 88.684 29.334 81.746 77.358 15.140 
499 34.090 65.771 20.136 15.971 28.674 7.4385 
500 20.961 77.373 9.9329 15.716 38.145 6.2469 
501 48.985 66.059 50.556 28.289 33.466 29.209 
502 92.409 9.0241 90.897 74.518 29.028 94.102 
503 40.340 11.090 52.408 15.283 6.1904 28.077 
504 41.367 58.198 88.277 37.692 30.362 90.817 
505 72.147 77.604 91.982 66.250 57.618 100.05 
506 12.761 67.714 50.147 16.940 30.391 28.205 
507 76.617 25.882 91.445 58.127 25.134 95.070 
508 92.734 34.742 50.285 59.694 30.303 24.705 
509 16.114 24.640 92.845 26.832 11.785 97.842 
510 22.589 72.255 61.762 23.851 36.319 44.264 
511 79.742 58.911 30.090 45.473 36.506 11.028 
512 75.000 100.00 87.265 76.611 86.160 96.532 
513 22.068 58.052 24.509 10.690 21.233 8.4518 
514 29.302 20.341 8.3315 4.9982 3.8663 1.1653 
515 75.009 40.707 41.951 39.155 24.019 18.530 
516 76.599 13.357 74.764 48.539 19.531 61.192 
517 10.272 88.110 94.612 44.185 57.799 110.09 
518 34.093 23.728 89.777 29.688 12.493 92.496 
519 29.867 13.694 72.950 19.000 7.3435 57.455 
520 64.983 91.010 77.614 58.486 68.148 72.719 
521 66.135 26.770 20.928 26.032 14.129 4.3334 
522 36.207 25.309 75.344 22.918 10.921 61.738 
523 78.931 73.018 10.687 47.346 47.739 5.0978 
524 30.391 22.415 20.277 6.2016 4.8269 4.2147 
525 11.242 82.956 64.472 27.182 47.856 49.415 
526 80.459 87.628 28.607 56.094 65.949 14.061 
527 27.707 31.870 88.315 27.936 14.174 90.723 
528 62.060 36.458 46.606 28.107 17.661 22.716 
529 29.542 11.104 53.546 11.705 4.5356 29.726 
530 68.762 19.114 33.778 29.067 13.719 10.603 
531 59.637 48.524 31.174 25.719 21.973 10.710 
532 48.298 33.520 100.00 42.907 20.106 116.27 
533 45.598 28.163 66.475 23.801 12.496 47.457 
534 29.918 44.928 90.506 31.691 20.689 94.938 
535 78.316 92.636 77.206 70.892 75.527 71.516 
536 91.281 57.367 55.776 64.074 42.739 32.971 
537 21.692 25.080 26.495 5.0255 4.8194 6.6344 
538 74.304 63.813 94.636 65.186 45.929 104.46 
539 88.481 29.745 32.468 49.947 24.919 9.3987 
540 59.486 41.236 87.042 43.286 24.268 86.811 
541 92.045 78.449 60.137 72.731 62.502 42.125 
542 61.977 24.673 6.6648 21.366 11.774 1.1090 
543 40.162 92.786 90.522 51.279 66.321 101.51 
544 36.748 77.066 93.097 44.760 47.584 105.07 
545 20.161 69.446 29.150 14.185 30.543 11.602 
546 47.187 88.771 0.0000 29.571 55.091 7.8734 
547 44.188 43.219 90.474 37.200 21.827 95.435 
548 8.9634 92.695 8.7975 20.477 55.297 8.8918 
549 32.387 45.286 72.510 23.251 17.837 58.662 
550 48.879 44.876 39.601 20.165 17.769 16.439 
551 61.287 11.463 77.817 36.606 14.167 66.051 
552 25.396 43.768 11.365 7.3491 12.271 2.8696 
553 76.983 53.137 73.131 53.928 35.349 59.571 
554 43.083 65.437 28.359 20.480 30.544 10.431 
555 11.708 51.209 32.796 8.4912 16.161 11.876 
556 71.238 41.136 23.296 32.223 21.817 5.7501 
557 21.758 7.4731 22.877 3.5061 1.7549 4.8950 
558 23.721 37.471 27.997 7.0915 9.5117 7.8534 
559 10.847 0.0000 52.434 7.5632 2.4189 27.910 
560 52.184 32.794 25.185 17.084 11.990 6.1702 
561 25.164 57.264 2.5113 9.7549 20.170 3.2167 
562 25.531 62.973 45.088 16.593 26.486 23.452 
563 59.406 92.015 9.9812 38.598 62.234 8.5377 
564 9.0031 43.883 94.414 29.799 19.011 103.43 
565 29.380 24.618 40.510 9.1519 6.2439 16.004 
566 56.497 10.252 5.6832 16.657 7.7745 2.9998e+04 
567 70.521 20.255 56.201 35.853 16.271 31.440 
568 81.365 40.212 31.436 43.307 25.843 9.5339 
569 56.550 19.280 86.012 38.056 15.760 83.506 
570 25.096 37.115 57.433 14.247 11.667 34.898 
571 87.229 43.818 88.570 70.702 37.249 89.373 
572 9.0945 89.498 36.178 22.136 52.749 19.434 
573 60.107 91.337 22.013 39.468 61.970 11.279 
574 43.216 91.406 24.486 30.032 58.546 12.872 
575 55.315 58.321 10.243 23.048 26.693 4.0066 
576 63.269 92.590 62.685 51.379 67.912 48.917 
577 20.915 89.348 8.0709 20.541 52.217 7.9654 
578 33.841 42.636 23.687 10.560 12.888 6.8485 
579 82.320 36.054 11.955 41.265 23.538 1.9481 
580 78.197 45.345 53.373 45.825 28.591 29.948 
581 87.492 64.105 49.348 59.618 45.344 27.307 
582 80.208 74.738 68.707 61.410 53.691 54.412 
583 12.847 33.194 39.194 6.5492 7.4471 15.772 
584 15.215 55.484 78.368 24.384 24.015 69.605 
585 25.437 6.1049 39.533 6.8206 2.7883 15.197 
586 57.870 49.584 46.944 27.994 23.228 23.820 
587 67.620 65.849 53.975 41.579 38.568 34.140 
588 26.643 41.991 38.871 10.624 12.507 15.850 
589 42.800 8.7865 22.456 10.198 4.5952 4.1589 
590 57.049 35.385 77.322 35.911 19.154 66.509 
591 36.112 43.832 54.787 17.988 15.788 32.301 
592 62.719 62.395 77.348 45.619 37.118 68.850 
593 60.706 81.416 54.884 42.117 52.581 35.592 
594 90.695 4.9508 56.719 56.931 23.485 31.470 
595 43.936 24.373 43.898 15.595 8.7311 19.369 
596 4.3825 24.210 30.612 3.4978 3.7556 9.1985 
597 53.911 79.942 42.742 33.921 48.366 22.597 
598 90.172 22.149 68.288 60.665 26.752 49.153 
599 77.586 29.345 63.000 45.443 22.168 42.077 
600 60.572 25.668 63.187 30.738 14.842 42.027 
601 97.729 10.927 74.359 72.581 29.429 60.723 
602 57.769 8.0576 53.146 24.317 9.9119 28.578 
603 77.517 92.691 61.488 63.504 72.427 47.823 
604 44.198 38.831 60.002 22.182 15.267 38.970 
605 65.034 81.736 33.440 40.382 52.256 16.337 
606 67.829 69.791 24.123 36.834 40.179 9.3503 
607 25.001 99.668 13.437 27.148 67.269 10.418 
608 89.683 25.837 56.548 56.709 26.080 32.164 
609 41.656 51.246 11.867 14.308 18.992 3.0712 
610 23.720 38.131 96.840 32.077 17.992 106.90 
611 78.049 6.5915 25.803 35.635 15.177 5.7697 
612 46.116 56.291 55.290 25.212 25.966 33.143 
613 92.023 9.1483 37.844 53.359 22.685 12.839 
614 91.068 89.904 23.497 68.732 73.563 11.578 
615 76.477 27.045 32.402 35.999 18.490 9.7733 
616 42.661 5.2197 80.136 27.015 9.6840 72.147 
617 6.2584 65.435 77.208 25.878 30.957 69.593 
618 89.710 95.846 52.578 75.387 81.563 36.337 
619 88.397 77.149 94.397 84.627 63.898 107.73 
620 78.888 91.034 93.609 79.168 75.489 108.44 
621 47.820 92.501 59.000 40.578 62.481 44.269 
622 23.826 47.444 80.539 25.510 19.397 74.888 
623 9.0413 12.290 37.978 4.1903 2.0407 13.934 
624 23.331 16.308 46.267 8.3177 4.1760 21.233 
625 35.756 10.704 35.900 9.4108 4.0226 12.334 
626 2.9969 77.210 88.879 35.761 44.673 94.198 
627 28.436 75.743 23.117 17.745 37.770 9.3880 
628 9.0221 78.989 30.580 16.696 40.280 14.132 
629 8.8030 17.371 0.30943 1.1085 1.9528 0.28024 
630 60.160 36.719 3.7856 21.535 15.513 1.0512 
631 7.0698 90.899 57.373 27.748 56.428 40.917 
632 79.721 9.5270 45.163 40.984 17.107 20.103 
633 10.879 74.236 95.746 39.301 42.674 111.20 
634 64.217 22.086 74.373 37.866 16.331 61.235 
635 70.017 40.853 76.607 46.461 25.803 66.086 
636 4.7334 24.411 48.203 7.0089 4.7868 23.859 
637 50.973 26.358 13.005 14.985 9.4797 2.0120 
638 2.5724 55.065 90.994 29.855 24.908 96.615 
639 90.879 45.601 57.982 61.691 35.232 35.132 
640 68.145 79.947 44.862 44.695 52.557 24.143 
641 1.4829 67.595 54.158 17.426 30.255 32.589 
642 98.031 12.492 26.865 59.854 25.815 5.3772 
643 76.470 93.209 18.886 53.560 70.611 10.112 
644 87.292 66.922 80.462 71.905 51.874 74.411 
645 10.233 96.829 47.233 27.630 63.006 29.888 
646 68.028 67.167 39.031 38.228 39.156 17.938 
647 45.312 94.998 9.2426 31.476 63.144 9.3200 
648 77.970 53.709 40.015 43.705 32.091 17.827 
649 39.314 57.645 38.800 18.122 23.567 17.765 
650 57.297 82.865 67.439 45.055 54.154 55.529 
651 37.555 22.599 31.928 10.248 6.2275 9.7692 
652 92.350 23.597 40.911 55.555 25.625 15.625 
653 9.3660 69.976 21.141 12.154 30.494 8.1640 
654 51.187 19.140 23.012 15.233 8.1245 4.4194 
655 79.397 80.212 79.858 68.002 61.499 74.904 
656 95.392 55.226 12.927 61.281 41.104 2.6097 
657 41.375 92.945 46.055 33.762 61.251 27.595 
658 45.146 82.618 89.901 48.917 55.373 98.020 
659 77.443 63.822 71.275 56.003 43.159 57.836 
660 53.973 31.254 55.289 24.644 14.272 31.416 
661 67.321 92.812 91.875 68.614 73.683 104.89 
662 39.436 37.141 40.709 14.255 12.235 16.985 
663 97.731 46.918 91.781 85.935 44.376 98.230 
664 40.993 6.1961 67.428 20.384 7.4803 48.878 
665 79.123 80.606 57.718 58.402 58.046 40.299 
666 28.913 52.537 29.968 11.761 18.118 10.654 
667 14.658 37.254 73.035 18.268 12.667 58.818 
668 82.795 16.173 87.132 61.246 24.469 86.648 
669 8.3262 91.659 83.695 39.310 60.453 85.801 
670 45.527 77.031 49.285 29.950 43.723 28.842 
671 9.0854 40.031 62.080 13.501 12.315 40.692 
672 95.919 70.219 40.212 69.612 54.935 18.098 
673 42.670 92.336 77.786 45.709 64.861 73.203 
674 94.260 40.143 78.486 72.770 36.832 68.368 
675 65.647 53.082 89.436 51.765 33.480 93.486 
676 81.521 18.364 16.183 38.501 18.005 1.9081 
677 8.4681 2.0260 9.4857 0.69828 0.55419 1.1882 
678 30.651 60.550 56.553 20.619 26.347 35.967 
679 53.483 73.043 73.646 40.984 43.253 63.866 
680 90.408 54.335 1.4985 54.044 37.346 1.7959 
681 26.668 7.7075 63.496 13.842 5.1376 42.151 
682 58.933 25.917 94.913 45.211 19.200 103.75 
683 9.8548 0.76371 72.617 14.644 4.8237 56.467 
684 47.990 75.517 31.176 26.566 40.802 13.085 
685 48.087 9.0808 60.091 21.227 8.2582 37.275 
686 10.988 21.876 19.614 2.4483 3.1427 3.7171 
687 22.598 55.646 65.078 20.015 22.805 46.423 
688 9.0697 82.142 78.531 32.534 48.638 73.218 
689 90.301 42.459 39.120 55.366 31.729 15.874 
690 47.378 36.472 11.171 14.224 12.429 2.0470 
691 49.382 1.8032 9.6600 12.323 5.2231 1.1939 
692 1.9703 20.522 9.5307 1.3427 2.3244 1.6632 
693 81.649 69.738 31.735 50.804 46.290 13.554 
694 34.530 73.626 67.130 29.741 39.603 52.749 
695 81.659 80.940 43.479 57.522 58.473 24.831 
696 10.291 63.628 90.197 32.506 31.315 96.705 
697 9.3825 51.554 18.669 6.7452 15.418 5.5036 
698 17.762 96.201 72.191 37.011 64.783 64.432 
699 67.560 52.693 6.6256 30.383 26.186 2.3956 
700 45.853 7.7641 41.225 14.616 6.0230 16.218 
701 10.950 73.197 73.054 26.768 37.923 61.989 
702 30.698 39.723 1.5250 7.6510 10.697 1.5526 
703 81.002 52.333 91.825 66.971 39.654 96.874 
704 51.213 8.0050 98.430 40.970 14.945 109.81 
705 5.4368 7.4372 80.307 18.021 6.0494 71.037 
706 23.483 5.5586 76.358 18.556 6.1319 64.298 
707 32.278 78.328 11.186 18.931 40.608 6.3818 
708 4.5816 10.694 55.933 8.2843 3.3654 31.607 
709 89.829 62.524 36.614 58.290 43.999 15.722 
710 80.544 47.439 8.1742 41.437 28.124 2.4839 
711 52.750 18.751 64.422 25.704 11.026 44.133 
712 62.358 2.6644 71.659 34.160 12.733 55.826 
713 64.674 45.928 67.561 38.760 25.143 49.787 
714 9.4766 33.184 90.141 25.791 13.291 93.844 
715 70.466 56.323 80.091 51.816 35.693 73.488 
716 57.237 71.111 99.776 56.957 47.721 117.55 
717 87.665 54.898 77.235 67.631 41.986 66.257 
718 16.330 71.595 0.85939 12.582 32.011 4.4365 
719 35.300 79.117 32.908 22.693 42.703 14.871 
720 28.667 65.599 9.3944 13.124 27.387 4.3397 
721 6.4435 54.089 70.225 19.457 21.333 55.091 
722 61.839 6.8281 38.810 23.649 10.031 14.353 
723 26.820 89.870 94.786 47.754 61.742 110.38 
724 5.7523 92.776 20.962 21.100 56.101 11.593 
725 75.073 63.309 7.8752 39.830 36.847 3.6359 
726 61.102 20.846 50.693 26.816 12.699 25.907 
727 22.212 92.446 35.502 25.086 56.449 19.981 
728 92.086 35.290 8.3735 52.520 28.030 0.48014 
729 6.1371 56.812 8.6847 7.2782 18.773 3.9587 
730 17.496 95.134 90.968 45.756 66.199 102.05 
731 97.652 22.856 91.040 81.780 34.599 93.283 
732 49.838 56.677 94.927 45.032 32.827 104.46 
733 52.347 66.189 89.979 46.635 40.043 94.930 
734 9.2025 61.070 60.052 17.432 25.548 39.231 
735 91.322 33.889 95.067 76.654 35.321 103.14 
736 35.535 50.421 47.701 17.068 19.114 25.002 
737 90.687 67.765 92.424 82.293 55.899 100.84 
738 23.140 27.979 7.2528 4.0383 5.3964 0.98291 
739 74.571 37.346 94.340 58.707 28.700 103.28 
740 94.499 74.711 82.469 83.963 62.454 81.804 
741 43.662 60.242 6.7089 17.210 25.178 3.7955 
742 94.229 53.959 43.646 63.341 40.534 20.689 
743 88.819 11.383 66.503 58.296 23.920 46.884 
744 32.047 21.909 62.334 16.072 7.6032 41.369 
745 54.950 92.541 82.626 54.456 67.569 83.148 
746 71.956 56.212 58.905 43.976 33.252 37.405 
747 99.325 70.902 23.244 72.837 57.105 7.4217 
748 90.147 23.875 23.537 50.016 23.684 4.6283 
749 4.9251 37.670 45.258 7.9906 9.6270 20.798 
750 92.003 4.3641 46.508 55.008 22.999 20.583 
751 8.0287 68.481 36.597 13.606 29.813 15.988 
752 94.712 55.380 27.877 61.015 40.632 9.5299 
753 59.036 41.793 22.693 22.842 17.887 5.9864 
754 75.085 4.1457 81.543 49.532 18.941 74.539 
755 63.301 73.580 81.794 52.140 48.306 80.206 
756 87.889 97.159 72.707 81.021 83.926 66.836 
757 39.453 9.5152 91.318 31.809 10.989 95.742 
758 26.353 18.572 94.841 29.576 11.085 103.79 
759 19.325 8.4249 4.4960 1.9357 1.0410 0.66876 
760 14.945 80.063 53.214 22.456 42.324 34.362 
761 56.393 7.7606 18.733 17.238 7.6440 2.6849 
762 53.296 91.987 40.941 38.398 62.516 22.686 
763 91.714 5.4089 17.461 50.102 21.571 1.4759 
764 35.214 69.883 47.511 22.147 34.099 25.581 
765 54.174 65.046 39.976 28.105 33.026 19.071 
766 0.48739 73.380 13.583 12.260 33.329 5.9091 
767 45.038 24.464 90.440 34.467 14.685 93.599 
768 63.657 41.354 57.623 33.172 21.283 35.547 
769 60.349 99.318 73.525 57.516 77.944 68.721 
770 45.802 53.303 31.659 18.786 21.473 12.297 
771 66.010 80.362 74.383 52.888 54.769 66.887 
772 23.949 64.714 91.592 35.761 33.291 100.97 
773 74.347 9.4171 54.078 38.147 15.657 29.731 
774 92.529 91.743 63.785 80.541 78.228 49.994 
775 27.251 94.198 55.878 32.015 61.211 40.025 
776 35.570 11.733 10.395 6.7352 3.4880 1.6167 
777 2.5649 51.038 46.451 10.568 16.708 22.698 
778 91.133 22.688 78.884 66.964 28.728 67.676 
779 9.3684 3.2632 25.712 2.0553 0.86497 6.2430 
780 89.782 58.781 98.566 82.066 49.537 112.90 
781 91.178 92.619 40.078 72.619 77.751 22.094 
782 67.918 75.593 60.707 47.015 49.192 43.287 
783 21.214 7.6666 93.134 27.190 9.1322 99.902 
784 16.312 15.496 27.702 3.2782 2.3678 6.7695 
785 55.058 61.647 63.033 33.994 32.320 45.306 
786 64.827 43.743 39.237 29.777 21.223 16.992 
787 76.437 76.558 23.556 46.566 49.859 10.023 
788 23.505 31.715 37.321 7.8232 7.5969 14.348 
789 73.049 16.469 95.896 56.483 22.102 105.97 
790 86.350 91.415 7.6506 63.277 72.207 7.3567 
791 75.383 18.628 65.782 43.502 18.858 44.955 
792 69.893 90.723 32.423 48.118 65.533 15.790 
793 48.410 50.555 75.728 32.725 24.757 64.318 
794 66.070 6.5086 22.487 24.725 10.757 3.8358 
795 56.705 65.792 24.032 27.424 33.875 8.2583 
796 76.562 34.662 51.314 41.300 22.620 26.651 
797 79.282 37.864 70.629 51.324 27.029 54.569 
798 61.860 83.501 85.092 56.514 59.471 87.581 
799 55.206 71.204 58.769 35.722 40.918 39.872 
800 41.161 67.679 77.016 34.996 36.547 70.065 
801 39.082 35.254 73.407 24.688 14.762 59.674 
802 54.232 98.131 91.703 61.827 76.242 106.28 
803 52.316 68.565 11.225 24.332 34.079 5.4161 
804 13.126 31.651 17.948 3.4827 6.0561 3.4397 
805 41.211 67.640 94.245 44.053 39.219 105.78 
806 6.2691 78.009 44.653 18.729 39.468 24.671 
807 18.472 48.506 58.249 15.138 17.062 36.466 
808 91.193 95.684 89.468 92.896 87.219 97.818 
809 90.576 89.753 96.277 92.902 80.804 110.97 
810 91.055 18.181 4.8873 49.679 22.609 2.9997e+04 
811 9.5158 57.466 44.934 12.440 21.539 22.223 
812 74.253 8.6243 35.462 33.473 14.175 11.710 
813 30.958 79.592 58.964 27.800 44.690 41.298 
814 64.297 44.200 12.447 26.113 20.555 2.6937 
815 90.387 78.022 2.1230 61.290 58.014 5.1827 
816 38.276 57.670 62.470 24.427 25.530 43.983 
817 69.306 81.298 10.013 41.244 52.579 6.6488 
818 11.786 56.194 98.458 35.422 27.515 115.45 
819 37.361 92.605 63.696 37.624 61.344 50.986 
820 99.099 26.774 11.310 61.465 29.034 0.41700 
821 33.690 80.487 44.100 25.025 44.587 24.850 
822 58.378 47.696 96.771 49.386 29.232 108.54 
823 8.3100 80.971 8.1118 15.305 41.727 5.8408 
824 36.053 31.424 11.914 8.5687 8.2325 1.7494 
825 23.960 74.365 97.709 42.380 44.621 113.32 
826 2.2643 18.895 91.763 24.640 9.6930 95.649 
827 33.230 92.745 7.8538 25.412 58.260 7.8600 
828 74.486 38.764 0.43818 33.356 21.177 0.97758 
829 72.293 67.732 84.511 58.916 46.613 84.896 
830 71.349 55.278 23.750 35.152 29.955 7.5059 
831 10.998 19.916 82.596 20.564 8.2000 77.523 
832 1.5798 33.328 79.698 19.954 11.360 72.462 
833 61.955 8.9911 90.766 44.073 16.157 95.333 
834 44.195 40.277 31.491 15.318 14.114 10.178 
835 59.060 79.425 21.320 33.579 47.304 9.5625 
836 9.8214 2.9467 42.842 5.0037 1.8582 17.736 
END_DATA
CAL    

DESCRIPTOR "Argyll Device Calibration State"
ORIGINATOR "Argyll dispread"
CREATED "Tue Jan 10 14:56:29 2012"
KEYWORD "DEVICE_CLASS"
DEVICE_CLASS "DISPLAY"
KEYWORD "COLOR_REP"
COLOR_REP "RGB"

KEYWORD "RGB_I"
NUMBER_OF_FIELDS 4
BEGIN_DATA_FORMAT
RGB_I RGB_R RGB_G RGB_B 
END_DATA_FORMAT

NUMBER_OF_SETS 256
BEGIN_DATA
0.0000 0.0000 0.0000 0.0000 
3.9216e-03 3.9216e-03 3.9216e-03 3.9216e-03 
7.8431e-03 7.8431e-03 7.8431e-03 7.8431e-03 
0.011765 0.011765 0.011765 0.011765 
0.015686 0.015686 0.015686 0.015686 
0.019608 0.019608 0.019608 0.019608 
0.023529 0.023529 0.023529 0.023529 
0.027451 0.027451 0.027451 0.027451 
0.031373 0.031373 0.031373 0.031373 
0.035294 0.035294 0.035294 0.035294 
0.039216 0.039216 0.039216 0.039216 
0.043137 0.043137 0.043137 0.043137 
0.047059 0.047059 0.047059 0.047059 
0.050980 0.050980 0.050980 0.050980 
0.054902 0.054902 0.054902 0.054902 
0.058824 0.058824 0.058824 0.058824 
0.062745 0.062745 0.062745 0.062745 
0.066667 0.066667 0.066667 0.066667 
0.070588 0.070588 0.070588 0.070588 
0.074510 0.074510 0.074510 0.074510 
0.078431 0.078431 0.078431 0.078431 
0.082353 0.082353 0.082353 0.082353 
0.086275 0.086275 0.086275 0.086275 
0.090196 0.090196 0.090196 0.090196 
0.094118 0.094118 0.094118 0.094118 
0.098039 0.098039 0.098039 0.098039 
0.10196 0.10196 0.10196 0.10196 
0.10588 0.10588 0.10588 0.10588 
0.10980 0.10980 0.10980 0.10980 
0.11373 0.11373 0.11373 0.11373 
0.11765 0.11765 0.11765 0.11765 
0.12157 0.12157 0.12157 0.12157 
0.12549 0.12549 0.12549 0.12549 
0.12941 0.12941 0.12941 0.12941 
0.13333 0.13333 0.13333 0.13333 
0.13725 0.13725 0.13725 0.13725 
0.14118 0.14118 0.14118 0.14118 
0.14510 0.14510 0.14510 0.14510 
0.14902 0.14902 0.14902 0.14902 
0.15294 0.15294 0.15294 0.15294 
0.15686 0.15686 0.15686 0.15686 
0.16078 0.16078 0.16078 0.16078 
0.16471 0.16471 0.16471 0.16471 
0.16863 0.16863 0.16863 0.16863 
0.17255 0.17255 0.17255 0.17255 
0.17647 0.17647 0.17647 0.17647 
0.18039 0.18039 0.18039 0.18039 
0.18431 0.18431 0.18431 0.18431 
0.18824 0.18824 0.18824 0.18824 
0.19216 0.19216 0.19216 0.19216 
0.19608 0.19608 0.19608 0.19608 
0.20000 0.20000 0.20000 0.20000 
0.20392 0.20392 0.20392 0.20392 
0.20784 0.20784 0.20784 0.20784 
0.21176 0.21176 0.21176 0.21176 
0.21569 0.21569 0.21569 0.21569 
0.21961 0.21961 0.21961 0.21961 
0.22353 0.22353 0.22353 0.22353 
0.22745 0.22745 0.22745 0.22745 
0.23137 0.23137 0.23137 0.23137 
0.23529 0.23529 0.23529 0.23529 
0.23922 0.23922 0.23922 0.23922 
0.24314 0.24314 0.24314 0.24314 
0.24706 0.24706 0.24706 0.24706 
0.25098 0.25098 0.25098 0.25098 
0.25490 0.25490 0.25490 0.25490 
0.25882 0.25882 0.25882 0.25882 
0.26275 0.26275 0.26275 0.26275 
0.26667 0.26667 0.26667 0.26667 
0.27059 0.27059 0.27059 0.27059 
0.27451 0.27451 0.27451 0.27451 
0.27843 0.27843 0.27843 0.27843 
0.28235 0.28235 0.28235 0.28235 
0.28627 0.28627 0.28627 0.28627 
0.29020 0.29020 0.29020 0.29020 
0.29412 0.29412 0.29412 0.29412 
0.29804 0.29804 0.29804 0.29804 
0.30196 0.30196 0.30196 0.30196 
0.30588 0.30588 0.30588 0.30588 
0.30980 0.30980 0.30980 0.30980 
0.31373 0.31373 0.31373 0.31373 
0.31765 0.31765 0.31765 0.31765 
0.32157 0.32157 0.32157 0.32157 
0.32549 0.32549 0.32549 0.32549 
0.32941 0.32941 0.32941 0.32941 
0.33333 0.33333 0.33333 0.33333 
0.33725 0.33725 0.33725 0.33725 
0.34118 0.34118 0.34118 0.34118 
0.34510 0.34510 0.34510 0.34510 
0.34902 0.34902 0.34902 0.34902 
0.35294 0.35294 0.35294 0.35294 
0.35686 0.35686 0.35686 0.35686 
0.36078 0.36078 0.36078 0.36078 
0.36471 0.36471 0.36471 0.36471 
0.36863 0.36863 0.36863 0.36863 
0.37255 0.37255 0.37255 0.37255 
0.37647 0.37647 0.37647 0.37647 
0.38039 0.38039 0.38039 0.38039 
0.38431 0.38431 0.38431 0.38431 
0.38824 0.38824 0.38824 0.38824 
0.39216 0.39216 0.39216 0.39216 
0.39608 0.39608 0.39608 0.39608 
0.40000 0.40000 0.40000 0.40000 
0.40392 0.40392 0.40392 0.40392 
0.40784 0.40784 0.40784 0.40784 
0.41176 0.41176 0.41176 0.41176 
0.41569 0.41569 0.41569 0.41569 
0.41961 0.41961 0.41961 0.41961 
0.42353 0.42353 0.42353 0.42353 
0.42745 0.42745 0.42745 0.42745 
0.43137 0.43137 0.43137 0.43137 
0.43529 0.43529 0.43529 0.43529 
0.43922 0.43922 0.43922 0.43922 
0.44314 0.44314 0.44314 0.44314 
0.44706 0.44706 0.44706 0.44706 
0.45098 0.45098 0.45098 0.45098 
0.45490 0.45490 0.45490 0.45490 
0.45882 0.45882 0.45882 0.45882 
0.46275 0.46275 0.46275 0.46275 
0.46667 0.46667 0.46667 0.46667 
0.47059 0.47059 0.47059 0.47059 
0.47451 0.47451 0.47451 0.47451 
0.47843 0.47843 0.47843 0.47843 
0.48235 0.48235 0.48235 0.48235 
0.48627 0.48627 0.48627 0.48627 
0.49020 0.49020 0.49020 0.49020 
0.49412 0.49412 0.49412 0.49412 
0.49804 0.49804 0.49804 0.49804 
0.50196 0.50196 0.50196 0.50196 
0.50588 0.50588 0.50588 0.50588 
0.50980 0.50980 0.50980 0.50980 
0.51373 0.51373 0.51373 0.51373 
0.51765 0.51765 0.51765 0.51765 
0.52157 0.52157 0.52157 0.52157 
0.52549 0.52549 0.52549 0.52549 
0.52941 0.52941 0.52941 0.52941 
0.53333 0.53333 0.53333 0.53333 
0.53725 0.53725 0.53725 0.53725 
0.54118 0.54118 0.54118 0.54118 
0.54510 0.54510 0.54510 0.54510 
0.54902 0.54902 0.54902 0.54902 
0.55294 0.55294 0.55294 0.55294 
0.55686 0.55686 0.55686 0.55686 
0.56078 0.56078 0.56078 0.56078 
0.56471 0.56471 0.56471 0.56471 
0.56863 0.56863 0.56863 0.56863 
0.57255 0.57255 0.57255 0.57255 
0.57647 0.57647 0.57647 0.57647 
0.58039 0.58039 0.58039 0.58039 
0.58431 0.58431 0.58431 0.58431 
0.58824 0.58824 0.58824 0.58824 
0.59216 0.59216 0.59216 0.59216 
0.59608 0.59608 0.59608 0.59608 
0.60000 0.60000 0.60000 0.60000 
0.60392 0.60392 0.60392 0.60392 
0.60784 0.60784 0.60784 0.60784 
0.61176 0.61176 0.61176 0.61176 
0.61569 0.61569 0.61569 0.61569 
0.61961 0.61961 0.61961 0.61961 
0.62353 0.62353 0.62353 0.62353 
0.62745 0.62745 0.62745 0.62745 
0.63137 0.63137 0.63137 0.63137 
0.63529 0.63529 0.63529 0.63529 
0.63922 0.63922 0.63922 0.63922 
0.64314 0.64314 0.64314 0.64314 
0.64706 0.64706 0.64706 0.64706 
0.65098 0.65098 0.65098 0.65098 
0.65490 0.65490 0.65490 0.65490 
0.65882 0.65882 0.65882 0.65882 
0.66275 0.66275 0.66275 0.66275 
0.66667 0.66667 0.66667 0.66667 
0.67059 0.67059 0.67059 0.67059 
0.67451 0.67451 0.67451 0.67451 
0.67843 0.67843 0.67843 0.67843 
0.68235 0.68235 0.68235 0.68235 
0.68627 0.68627 0.68627 0.68627 
0.69020 0.69020 0.69020 0.69020 
0.69412 0.69412 0.69412 0.69412 
0.69804 0.69804 0.69804 0.69804 
0.70196 0.70196 0.70196 0.70196 
0.70588 0.70588 0.70588 0.70588 
0.70980 0.70980 0.70980 0.70980 
0.71373 0.71373 0.71373 0.71373 
0.71765 0.71765 0.71765 0.71765 
0.72157 0.72157 0.72157 0.72157 
0.72549 0.72549 0.72549 0.72549 
0.72941 0.72941 0.72941 0.72941 
0.73333 0.73333 0.73333 0.73333 
0.73725 0.73725 0.73725 0.73725 
0.74118 0.74118 0.74118 0.74118 
0.74510 0.74510 0.74510 0.74510 
0.74902 0.74902 0.74902 0.74902 
0.75294 0.75294 0.75294 0.75294 
0.75686 0.75686 0.75686 0.75686 
0.76078 0.76078 0.76078 0.76078 
0.76471 0.76471 0.76471 0.76471 
0.76863 0.76863 0.76863 0.76863 
0.77255 0.77255 0.77255 0.77255 
0.77647 0.77647 0.77647 0.77647 
0.78039 0.78039 0.78039 0.78039 
0.78431 0.78431 0.78431 0.78431 
0.78824 0.78824 0.78824 0.78824 
0.79216 0.79216 0.79216 0.79216 
0.79608 0.79608 0.79608 0.79608 
0.80000 0.80000 0.80000 0.80000 
0.80392 0.80392 0.80392 0.80392 
0.80784 0.80784 0.80784 0.80784 
0.81176 0.81176 0.81176 0.81176 
0.81569 0.81569 0.81569 0.81569 
0.81961 0.81961 0.81961 0.81961 
0.82353 0.82353 0.82353 0.82353 
0.82745 0.82745 0.82745 0.82745 
0.83137 0.83137 0.83137 0.83137 
0.83529 0.83529 0.83529 0.83529 
0.83922 0.83922 0.83922 0.83922 
0.84314 0.84314 0.84314 0.84314 
0.84706 0.84706 0.84706 0.84706 
0.85098 0.85098 0.85098 0.85098 
0.85490 0.85490 0.85490 0.85490 
0.85882 0.85882 0.85882 0.85882 
0.86275 0.86275 0.86275 0.86275 
0.86667 0.86667 0.86667 0.86667 
0.87059 0.87059 0.87059 0.87059 
0.87451 0.87451 0.87451 0.87451 
0.87843 0.87843 0.87843 0.87843 
0.88235 0.88235 0.88235 0.88235 
0.88627 0.88627 0.88627 0.88627 
0.89020 0.89020 0.89020 0.89020 
0.89412 0.89412 0.89412 0.89412 
0.89804 0.89804 0.89804 0.89804 
0.90196 0.90196 0.90196 0.90196 
0.90588 0.90588 0.90588 0.90588 
0.90980 0.90980 0.90980 0.90980 
0.91373 0.91373 0.91373 0.91373 
0.91765 0.91765 0.91765 0.91765 
0.92157 0.92157 0.92157 0.92157 
0.92549 0.92549 0.92549 0.92549 
0.92941 0.92941 0.92941 0.92941 
0.93333 0.93333 0.93333 0.93333 
0.93725 0.93725 0.93725 0.93725 
0.94118 0.94118 0.94118 0.94118 
0.94510 0.94510 0.94510 0.94510 
0.94902 0.94902 0.94902 0.94902 
0.95294 0.95294 0.95294 0.95294 
0.95686 0.95686 0.95686 0.95686 
0.96078 0.96078 0.96078 0.96078 
0.96471 0.96471 0.96471 0.96471 
0.96863 0.96863 0.96863 0.96863 
0.97255 0.97255 0.97255 0.97255 
0.97647 0.97647 0.97647 0.97647 
0.98039 0.98039 0.98039 0.98039 
0.98431 0.98431 0.98431 0.98431 
0.98824 0.98824 0.98824 0.98824 
0.99216 0.99216 0.99216 0.99216 
0.99608 0.99608 0.99608 0.99608 
1.0000 1.0000 1.0000 1.0000 
END_DATA
